LabVIEW Measurement	
Writer_Version	2
Reader_Version	2
Separator	Tab
Decimal_Separator	.
Multi_Headings	Yes
X_Columns	One
Time_Pref	Absolute
Operator	labuser
Date	2023/05/24
Time	10:20:27.4589419999997625174
***End_of_Header***	
	
Channels	1	
Samples	10000	
Date	2023/05/24	
Time	10:20:27.4589419999997625174	
Y_Unit_Label	Volts	
X_Dimension	Time	
X0	0.0000000000000000E+0	
Delta_X	0.000500	
***End_of_Header***		
X_Value	Voltage	Comment
0.000000	1.458944
0.000500	1.457352
0.001000	1.453529
0.001500	1.454485
0.002000	1.457352
0.002500	1.456714
0.003000	1.454166
0.003500	1.455122
0.004000	1.455122
0.004500	1.456396
0.005000	1.456077
0.005500	1.455440
0.006000	1.456077
0.006500	1.456077
0.007000	1.457352
0.007500	1.456077
0.008000	1.455440
0.008500	1.455122
0.009000	1.456714
0.009500	1.457352
0.010000	1.456396
0.010500	1.454485
0.011000	1.454803
0.011500	1.459263
0.012000	1.456714
0.012500	1.453211
0.013000	1.454485
0.013500	1.459263
0.014000	1.457033
0.014500	1.454803
0.015000	1.455122
0.015500	1.457989
0.016000	1.457352
0.016500	1.456077
0.017000	1.455440
0.017500	1.456077
0.018000	1.456077
0.018500	1.456714
0.019000	1.455440
0.019500	1.455440
0.020000	1.456396
0.020500	1.456714
0.021000	1.457033
0.021500	1.454803
0.022000	1.454166
0.022500	1.455759
0.023000	1.457989
0.023500	1.456077
0.024000	1.452573
0.024500	1.455122
0.025000	1.459581
0.025500	1.457352
0.026000	1.453848
0.026500	1.455122
0.027000	1.458626
0.027500	1.456396
0.028000	1.454166
0.028500	1.454485
0.029000	1.455759
0.029500	1.456077
0.030000	1.455759
0.030500	1.455122
0.031000	1.455759
0.031500	1.455759
0.032000	1.456396
0.032500	1.456396
0.033000	1.455122
0.033500	1.455122
0.034000	1.456396
0.034500	1.457670
0.035000	1.455759
0.035500	1.454166
0.036000	1.455440
0.036500	1.459263
0.037000	1.457033
0.037500	1.453529
0.038000	1.454803
0.038500	1.458944
0.039000	1.457033
0.039500	1.454166
0.040000	1.454485
0.040500	1.457352
0.041000	1.456396
0.041500	1.454803
0.042000	1.454803
0.042500	1.456077
0.043000	1.456077
0.043500	1.456077
0.044000	1.455440
0.044500	1.455759
0.045000	1.456714
0.045500	1.456396
0.046000	1.456077
0.046500	1.455122
0.047000	1.454166
0.047500	1.456396
0.048000	1.457989
0.048500	1.455440
0.049000	1.453848
0.049500	1.454803
0.050000	1.458944
0.050500	1.455440
0.051000	1.452255
0.051500	1.454485
0.052000	1.458626
0.052500	1.456077
0.053000	1.452892
0.053500	1.455122
0.054000	1.457989
0.054500	1.457352
0.055000	1.456077
0.055500	1.454803
0.056000	1.456077
0.056500	1.456396
0.057000	1.456396
0.057500	1.455440
0.058000	1.455122
0.058500	1.456714
0.059000	1.456714
0.059500	1.456714
0.060000	1.455759
0.060500	1.454485
0.061000	1.455759
0.061500	1.458626
0.062000	1.456396
0.062500	1.453529
0.063000	1.455440
0.063500	1.458944
0.064000	1.457352
0.064500	1.453211
0.065000	1.454803
0.065500	1.459900
0.066000	1.457989
0.066500	1.454803
0.067000	1.455122
0.067500	1.457989
0.068000	1.458307
0.068500	1.456077
0.069000	1.455440
0.069500	1.457033
0.070000	1.457033
0.070500	1.457989
0.071000	1.456396
0.071500	1.455122
0.072000	1.455759
0.072500	1.457033
0.073000	1.457670
0.073500	1.456396
0.074000	1.455122
0.074500	1.456714
0.075000	1.458307
0.075500	1.457033
0.076000	1.454166
0.076500	1.455122
0.077000	1.458944
0.077500	1.456396
0.078000	1.452892
0.078500	1.456396
0.079000	1.457989
0.079500	1.457033
0.080000	1.454485
0.080500	1.455440
0.081000	1.456714
0.081500	1.457989
0.082000	1.455759
0.082500	1.456396
0.083000	1.456396
0.083500	1.457033
0.084000	1.457670
0.084500	1.457033
0.085000	1.456714
0.085500	1.455122
0.086000	1.457670
0.086500	1.457989
0.087000	1.455440
0.087500	1.454166
0.088000	1.456714
0.088500	1.459263
0.089000	1.457352
0.089500	1.453211
0.090000	1.455759
0.090500	1.459581
0.091000	1.457033
0.091500	1.454166
0.092000	1.455440
0.092500	1.457033
0.093000	1.457352
0.093500	1.455759
0.094000	1.455440
0.094500	1.456396
0.095000	1.456077
0.095500	1.457670
0.096000	1.456396
0.096500	1.455759
0.097000	1.455759
0.097500	1.456396
0.098000	1.457352
0.098500	1.455759
0.099000	1.455440
0.099500	1.456714
0.100000	1.458944
0.100500	1.457033
0.101000	1.453848
0.101500	1.455759
0.102000	1.460855
0.102500	1.457352
0.103000	1.454166
0.103500	1.454803
0.104000	1.458944
0.104500	1.457033
0.105000	1.454803
0.105500	1.455122
0.106000	1.456714
0.106500	1.457033
0.107000	1.456396
0.107500	1.455759
0.108000	1.456396
0.108500	1.455440
0.109000	1.456396
0.109500	1.456396
0.110000	1.455759
0.110500	1.454803
0.111000	1.456396
0.111500	1.457352
0.112000	1.455759
0.112500	1.452892
0.113000	1.456077
0.113500	1.458307
0.114000	1.456396
0.114500	1.452255
0.115000	1.454485
0.115500	1.457989
0.116000	1.457352
0.116500	1.452892
0.117000	1.454166
0.117500	1.457352
0.118000	1.456714
0.118500	1.455759
0.119000	1.455122
0.119500	1.454166
0.120000	1.456077
0.120500	1.456714
0.121000	1.455122
0.121500	1.454485
0.122000	1.454803
0.122500	1.456396
0.123000	1.457033
0.123500	1.456714
0.124000	1.454166
0.124500	1.455759
0.125000	1.457989
0.125500	1.456396
0.126000	1.453529
0.126500	1.455440
0.127000	1.458626
0.127500	1.457033
0.128000	1.453529
0.128500	1.455122
0.129000	1.458307
0.129500	1.457352
0.130000	1.455440
0.130500	1.454803
0.131000	1.456714
0.131500	1.455759
0.132000	1.456714
0.132500	1.456714
0.133000	1.455122
0.133500	1.455440
0.134000	1.456714
0.134500	1.457352
0.135000	1.455122
0.135500	1.455122
0.136000	1.456714
0.136500	1.457989
0.137000	1.456714
0.137500	1.453848
0.138000	1.455122
0.138500	1.459581
0.139000	1.456396
0.139500	1.452892
0.140000	1.454485
0.140500	1.458944
0.141000	1.455759
0.141500	1.453848
0.142000	1.454485
0.142500	1.456714
0.143000	1.456077
0.143500	1.456396
0.144000	1.454803
0.144500	1.455122
0.145000	1.456077
0.145500	1.456396
0.146000	1.457033
0.146500	1.455122
0.147000	1.454803
0.147500	1.456077
0.148000	1.457670
0.148500	1.456077
0.149000	1.453848
0.149500	1.455122
0.150000	1.458307
0.150500	1.456714
0.151000	1.452573
0.151500	1.454485
0.152000	1.459581
0.152500	1.457033
0.153000	1.453848
0.153500	1.454485
0.154000	1.457352
0.154500	1.456714
0.155000	1.455759
0.155500	1.455122
0.156000	1.457352
0.156500	1.457033
0.157000	1.456714
0.157500	1.455759
0.158000	1.455122
0.158500	1.455440
0.159000	1.456714
0.159500	1.457033
0.160000	1.455759
0.160500	1.455440
0.161000	1.455759
0.161500	1.458307
0.162000	1.457352
0.162500	1.454485
0.163000	1.454803
0.163500	1.459900
0.164000	1.457352
0.164500	1.452573
0.165000	1.455122
0.165500	1.458307
0.166000	1.457352
0.166500	1.454485
0.167000	1.455440
0.167500	1.457033
0.168000	1.456396
0.168500	1.456396
0.169000	1.454803
0.169500	1.455122
0.170000	1.456077
0.170500	1.456714
0.171000	1.456396
0.171500	1.455122
0.172000	1.454485
0.172500	1.455759
0.173000	1.457033
0.173500	1.455759
0.174000	1.453211
0.174500	1.455122
0.175000	1.458626
0.175500	1.456714
0.176000	1.453211
0.176500	1.455440
0.177000	1.458626
0.177500	1.456714
0.178000	1.453848
0.178500	1.455122
0.179000	1.456714
0.179500	1.457033
0.180000	1.456077
0.180500	1.455440
0.181000	1.456396
0.181500	1.455759
0.182000	1.456714
0.182500	1.455759
0.183000	1.455759
0.183500	1.455440
0.184000	1.456077
0.184500	1.457989
0.185000	1.455759
0.185500	1.454803
0.186000	1.455759
0.186500	1.459263
0.187000	1.456396
0.187500	1.452892
0.188000	1.454803
0.188500	1.458944
0.189000	1.456714
0.189500	1.453529
0.190000	1.454166
0.190500	1.457670
0.191000	1.456714
0.191500	1.455122
0.192000	1.455122
0.192500	1.455440
0.193000	1.455759
0.193500	1.455759
0.194000	1.454803
0.194500	1.454803
0.195000	1.455122
0.195500	1.456077
0.196000	1.456714
0.196500	1.455759
0.197000	1.454485
0.197500	1.455759
0.198000	1.457989
0.198500	1.456396
0.199000	1.452573
0.199500	1.455440
0.200000	1.459263
0.200500	1.457352
0.201000	1.453529
0.201500	1.454803
0.202000	1.459263
0.202500	1.457352
0.203000	1.455440
0.203500	1.455440
0.204000	1.456714
0.204500	1.456396
0.205000	1.456714
0.205500	1.455440
0.206000	1.455440
0.206500	1.456077
0.207000	1.456714
0.207500	1.456714
0.208000	1.455759
0.208500	1.455440
0.209000	1.456396
0.209500	1.457033
0.210000	1.455440
0.210500	1.453211
0.211000	1.456077
0.211500	1.457989
0.212000	1.456077
0.212500	1.452255
0.213000	1.455122
0.213500	1.458944
0.214000	1.456714
0.214500	1.453529
0.215000	1.454166
0.215500	1.457033
0.216000	1.456714
0.216500	1.454803
0.217000	1.454803
0.217500	1.456396
0.218000	1.456396
0.218500	1.456396
0.219000	1.455440
0.219500	1.455759
0.220000	1.455122
0.220500	1.457033
0.221000	1.455759
0.221500	1.455759
0.222000	1.454166
0.222500	1.455759
0.223000	1.458626
0.223500	1.457033
0.224000	1.453211
0.224500	1.454485
0.225000	1.459263
0.225500	1.457352
0.226000	1.452892
0.226500	1.455122
0.227000	1.457670
0.227500	1.456714
0.228000	1.454166
0.228500	1.454803
0.229000	1.456077
0.229500	1.456077
0.230000	1.456396
0.230500	1.455759
0.231000	1.454803
0.231500	1.455759
0.232000	1.456077
0.232500	1.456396
0.233000	1.455122
0.233500	1.453848
0.234000	1.455440
0.234500	1.457670
0.235000	1.455440
0.235500	1.453211
0.236000	1.455440
0.236500	1.458626
0.237000	1.456714
0.237500	1.452573
0.238000	1.454485
0.238500	1.458944
0.239000	1.456396
0.239500	1.453529
0.240000	1.454803
0.240500	1.457352
0.241000	1.456396
0.241500	1.455440
0.242000	1.455122
0.242500	1.455759
0.243000	1.456714
0.243500	1.456396
0.244000	1.455759
0.244500	1.456077
0.245000	1.455440
0.245500	1.456714
0.246000	1.457033
0.246500	1.455759
0.247000	1.453529
0.247500	1.454803
0.248000	1.457989
0.248500	1.456077
0.249000	1.453211
0.249500	1.454485
0.250000	1.458626
0.250500	1.456396
0.251000	1.452892
0.251500	1.454485
0.252000	1.457033
0.252500	1.455759
0.253000	1.454803
0.253500	1.455122
0.254000	1.455759
0.254500	1.455759
0.255000	1.456077
0.255500	1.455440
0.256000	1.455759
0.256500	1.456077
0.257000	1.456714
0.257500	1.456396
0.258000	1.454485
0.258500	1.453848
0.259000	1.456396
0.259500	1.457352
0.260000	1.455759
0.260500	1.452255
0.261000	1.455122
0.261500	1.458944
0.262000	1.456396
0.262500	1.453848
0.263000	1.454803
0.263500	1.458307
0.264000	1.457352
0.264500	1.453848
0.265000	1.455122
0.265500	1.456714
0.266000	1.456714
0.266500	1.455440
0.267000	1.454803
0.267500	1.455122
0.268000	1.455759
0.268500	1.455759
0.269000	1.455759
0.269500	1.454166
0.270000	1.455440
0.270500	1.455759
0.271000	1.455759
0.271500	1.456077
0.272000	1.453848
0.272500	1.455122
0.273000	1.457670
0.273500	1.455759
0.274000	1.453529
0.274500	1.455759
0.275000	1.459263
0.275500	1.456396
0.276000	1.451936
0.276500	1.454485
0.277000	1.458626
0.277500	1.457352
0.278000	1.452892
0.278500	1.454803
0.279000	1.456714
0.279500	1.456077
0.280000	1.455759
0.280500	1.455440
0.281000	1.455440
0.281500	1.456396
0.282000	1.455759
0.282500	1.457033
0.283000	1.454485
0.283500	1.455122
0.284000	1.455759
0.284500	1.455759
0.285000	1.454803
0.285500	1.454803
0.286000	1.455759
0.286500	1.457670
0.287000	1.456077
0.287500	1.452255
0.288000	1.455122
0.288500	1.458626
0.289000	1.456714
0.289500	1.452573
0.290000	1.455440
0.290500	1.457670
0.291000	1.456714
0.291500	1.453848
0.292000	1.454485
0.292500	1.456077
0.293000	1.456396
0.293500	1.455122
0.294000	1.455440
0.294500	1.455440
0.295000	1.456077
0.295500	1.455759
0.296000	1.455759
0.296500	1.455122
0.297000	1.455759
0.297500	1.456714
0.298000	1.456077
0.298500	1.455759
0.299000	1.453848
0.299500	1.455440
0.300000	1.457989
0.300500	1.455759
0.301000	1.452573
0.301500	1.454803
0.302000	1.457989
0.302500	1.457033
0.303000	1.452892
0.303500	1.455122
0.304000	1.458307
0.304500	1.456714
0.305000	1.454485
0.305500	1.455440
0.306000	1.455759
0.306500	1.456714
0.307000	1.455440
0.307500	1.455122
0.308000	1.455440
0.308500	1.455440
0.309000	1.456714
0.309500	1.455122
0.310000	1.454803
0.310500	1.454803
0.311000	1.456077
0.311500	1.456714
0.312000	1.456077
0.312500	1.452255
0.313000	1.455440
0.313500	1.459581
0.314000	1.456714
0.314500	1.452892
0.315000	1.454803
0.315500	1.457989
0.316000	1.456714
0.316500	1.454803
0.317000	1.455122
0.317500	1.455759
0.318000	1.456077
0.318500	1.455759
0.319000	1.454803
0.319500	1.455440
0.320000	1.455759
0.320500	1.456077
0.321000	1.455440
0.321500	1.455122
0.322000	1.455122
0.322500	1.455440
0.323000	1.457033
0.323500	1.455759
0.324000	1.453529
0.324500	1.454803
0.325000	1.457989
0.325500	1.455759
0.326000	1.452255
0.326500	1.454485
0.327000	1.458944
0.327500	1.456714
0.328000	1.452892
0.328500	1.454166
0.329000	1.456714
0.329500	1.456077
0.330000	1.455440
0.330500	1.454485
0.331000	1.455122
0.331500	1.456396
0.332000	1.456396
0.332500	1.455759
0.333000	1.454485
0.333500	1.455440
0.334000	1.456396
0.334500	1.456714
0.335000	1.455122
0.335500	1.453848
0.336000	1.455440
0.336500	1.458307
0.337000	1.456714
0.337500	1.452573
0.338000	1.454166
0.338500	1.458307
0.339000	1.456714
0.339500	1.454166
0.340000	1.454803
0.340500	1.457352
0.341000	1.456714
0.341500	1.455759
0.342000	1.456077
0.342500	1.455122
0.343000	1.456396
0.343500	1.456714
0.344000	1.455440
0.344500	1.455440
0.345000	1.456077
0.345500	1.456714
0.346000	1.457670
0.346500	1.455759
0.347000	1.453848
0.347500	1.455122
0.348000	1.458944
0.348500	1.455759
0.349000	1.451936
0.349500	1.454485
0.350000	1.458307
0.350500	1.456396
0.351000	1.452892
0.351500	1.454485
0.352000	1.457670
0.352500	1.456714
0.353000	1.455122
0.353500	1.454803
0.354000	1.456077
0.354500	1.456396
0.355000	1.456396
0.355500	1.456077
0.356000	1.455440
0.356500	1.455122
0.357000	1.457352
0.357500	1.457670
0.358000	1.455122
0.358500	1.454803
0.359000	1.456396
0.359500	1.458307
0.360000	1.456077
0.360500	1.453529
0.361000	1.455440
0.361500	1.458626
0.362000	1.456077
0.362500	1.452892
0.363000	1.454485
0.363500	1.458307
0.364000	1.456396
0.364500	1.454166
0.365000	1.455440
0.365500	1.456396
0.366000	1.457352
0.366500	1.456396
0.367000	1.455122
0.367500	1.455440
0.368000	1.455759
0.368500	1.456714
0.369000	1.456396
0.369500	1.454803
0.370000	1.454485
0.370500	1.456396
0.371000	1.457352
0.371500	1.456077
0.372000	1.453848
0.372500	1.455440
0.373000	1.459581
0.373500	1.456396
0.374000	1.451936
0.374500	1.454803
0.375000	1.457989
0.375500	1.456714
0.376000	1.454166
0.376500	1.455122
0.377000	1.457033
0.377500	1.456396
0.378000	1.455440
0.378500	1.455440
0.379000	1.454803
0.379500	1.456077
0.380000	1.456077
0.380500	1.456396
0.381000	1.454803
0.381500	1.455122
0.382000	1.456077
0.382500	1.457352
0.383000	1.455440
0.383500	1.455122
0.384000	1.456396
0.384500	1.457670
0.385000	1.456714
0.385500	1.453529
0.386000	1.455440
0.386500	1.459263
0.387000	1.457670
0.387500	1.452892
0.388000	1.454485
0.388500	1.457989
0.389000	1.456077
0.389500	1.453848
0.390000	1.455122
0.390500	1.455759
0.391000	1.455440
0.391500	1.456077
0.392000	1.455122
0.392500	1.454485
0.393000	1.455122
0.393500	1.455759
0.394000	1.456077
0.394500	1.454485
0.395000	1.453529
0.395500	1.455440
0.396000	1.457670
0.396500	1.455759
0.397000	1.452255
0.397500	1.454803
0.398000	1.458944
0.398500	1.455759
0.399000	1.452255
0.399500	1.454166
0.400000	1.457670
0.400500	1.456714
0.401000	1.453848
0.401500	1.454166
0.402000	1.456077
0.402500	1.456714
0.403000	1.455759
0.403500	1.455122
0.404000	1.455440
0.404500	1.456077
0.405000	1.457033
0.405500	1.456396
0.406000	1.454166
0.406500	1.454803
0.407000	1.456077
0.407500	1.456714
0.408000	1.456077
0.408500	1.453211
0.409000	1.454803
0.409500	1.458944
0.410000	1.456077
0.410500	1.452573
0.411000	1.454166
0.411500	1.458626
0.412000	1.457033
0.412500	1.453211
0.413000	1.454803
0.413500	1.457033
0.414000	1.455759
0.414500	1.454485
0.415000	1.454166
0.415500	1.455440
0.416000	1.455440
0.416500	1.455759
0.417000	1.455440
0.417500	1.454166
0.418000	1.454485
0.418500	1.455759
0.419000	1.456714
0.419500	1.454166
0.420000	1.454803
0.420500	1.455122
0.421000	1.457989
0.421500	1.456077
0.422000	1.452573
0.422500	1.454485
0.423000	1.458626
0.423500	1.456714
0.424000	1.453211
0.424500	1.454485
0.425000	1.457670
0.425500	1.456714
0.426000	1.453848
0.426500	1.454485
0.427000	1.456396
0.427500	1.455440
0.428000	1.456077
0.428500	1.454166
0.429000	1.454485
0.429500	1.455759
0.430000	1.456077
0.430500	1.455759
0.431000	1.454166
0.431500	1.454166
0.432000	1.455759
0.432500	1.457033
0.433000	1.454803
0.433500	1.453529
0.434000	1.456396
0.434500	1.458626
0.435000	1.457670
0.435500	1.452255
0.436000	1.455122
0.436500	1.459263
0.437000	1.457033
0.437500	1.452892
0.438000	1.454166
0.438500	1.457033
0.439000	1.457033
0.439500	1.454166
0.440000	1.454166
0.440500	1.455759
0.441000	1.456396
0.441500	1.455440
0.442000	1.455122
0.442500	1.454803
0.443000	1.454803
0.443500	1.455759
0.444000	1.455759
0.444500	1.455440
0.445000	1.453848
0.445500	1.455440
0.446000	1.457670
0.446500	1.456077
0.447000	1.452573
0.447500	1.454803
0.448000	1.458307
0.448500	1.456396
0.449000	1.452255
0.449500	1.454166
0.450000	1.458307
0.450500	1.456396
0.451000	1.454166
0.451500	1.454803
0.452000	1.456396
0.452500	1.457033
0.453000	1.455759
0.453500	1.455122
0.454000	1.455759
0.454500	1.456077
0.455000	1.456714
0.455500	1.455759
0.456000	1.455440
0.456500	1.455122
0.457000	1.456077
0.457500	1.456396
0.458000	1.454803
0.458500	1.453848
0.459000	1.455122
0.459500	1.457670
0.460000	1.455759
0.460500	1.452573
0.461000	1.455122
0.461500	1.457989
0.462000	1.456396
0.462500	1.451936
0.463000	1.454485
0.463500	1.457989
0.464000	1.456077
0.464500	1.453848
0.465000	1.454485
0.465500	1.456077
0.466000	1.456077
0.466500	1.455440
0.467000	1.454803
0.467500	1.455122
0.468000	1.455440
0.468500	1.455759
0.469000	1.454803
0.469500	1.455122
0.470000	1.454803
0.470500	1.456077
0.471000	1.456714
0.471500	1.456077
0.472000	1.453211
0.472500	1.455122
0.473000	1.458307
0.473500	1.455759
0.474000	1.452573
0.474500	1.454166
0.475000	1.458626
0.475500	1.456077
0.476000	1.452892
0.476500	1.455122
0.477000	1.457989
0.477500	1.456714
0.478000	1.454803
0.478500	1.455122
0.479000	1.456396
0.479500	1.457033
0.480000	1.456077
0.480500	1.455759
0.481000	1.455122
0.481500	1.455759
0.482000	1.456396
0.482500	1.456077
0.483000	1.455122
0.483500	1.454803
0.484000	1.456396
0.484500	1.457033
0.485000	1.455759
0.485500	1.453211
0.486000	1.455122
0.486500	1.457989
0.487000	1.456396
0.487500	1.452892
0.488000	1.453848
0.488500	1.457989
0.489000	1.456396
0.489500	1.453529
0.490000	1.454485
0.490500	1.456396
0.491000	1.455759
0.491500	1.455440
0.492000	1.454803
0.492500	1.454803
0.493000	1.456077
0.493500	1.455759
0.494000	1.455759
0.494500	1.454485
0.495000	1.455440
0.495500	1.456077
0.496000	1.456714
0.496500	1.455759
0.497000	1.454166
0.497500	1.455440
0.498000	1.457670
0.498500	1.456396
0.499000	1.452892
0.499500	1.455440
0.500000	1.457670
0.500500	1.456714
0.501000	1.452892
0.501500	1.454166
0.502000	1.458307
0.502500	1.457670
0.503000	1.454166
0.503500	1.454485
0.504000	1.457033
0.504500	1.456714
0.505000	1.455122
0.505500	1.455440
0.506000	1.455122
0.506500	1.455759
0.507000	1.457033
0.507500	1.455440
0.508000	1.455122
0.508500	1.454803
0.509000	1.455759
0.509500	1.456077
0.510000	1.454803
0.510500	1.452892
0.511000	1.456077
0.511500	1.457670
0.512000	1.455759
0.512500	1.452573
0.513000	1.455440
0.513500	1.458626
0.514000	1.456396
0.514500	1.452255
0.515000	1.454166
0.515500	1.458307
0.516000	1.456714
0.516500	1.453848
0.517000	1.454485
0.517500	1.457670
0.518000	1.456714
0.518500	1.456077
0.519000	1.455759
0.519500	1.455759
0.520000	1.456077
0.520500	1.456714
0.521000	1.455759
0.521500	1.455122
0.522000	1.455440
0.522500	1.456396
0.523000	1.457352
0.523500	1.454166
0.524000	1.453211
0.524500	1.455759
0.525000	1.457989
0.525500	1.455440
0.526000	1.451936
0.526500	1.454166
0.527000	1.458626
0.527500	1.456077
0.528000	1.451936
0.528500	1.453211
0.529000	1.457352
0.529500	1.456714
0.530000	1.454803
0.530500	1.454166
0.531000	1.456077
0.531500	1.456077
0.532000	1.455440
0.532500	1.455440
0.533000	1.454166
0.533500	1.454485
0.534000	1.456396
0.534500	1.456714
0.535000	1.455440
0.535500	1.453848
0.536000	1.454803
0.536500	1.457670
0.537000	1.454803
0.537500	1.451936
0.538000	1.454485
0.538500	1.457670
0.539000	1.455122
0.539500	1.451936
0.540000	1.454485
0.540500	1.457670
0.541000	1.456077
0.541500	1.453211
0.542000	1.454166
0.542500	1.456714
0.543000	1.456396
0.543500	1.455122
0.544000	1.454803
0.544500	1.455440
0.545000	1.455759
0.545500	1.456396
0.546000	1.455759
0.546500	1.454803
0.547000	1.456077
0.547500	1.456396
0.548000	1.457352
0.548500	1.455122
0.549000	1.453211
0.549500	1.456077
0.550000	1.458307
0.550500	1.456077
0.551000	1.451936
0.551500	1.454803
0.552000	1.458307
0.552500	1.456077
0.553000	1.452573
0.553500	1.453529
0.554000	1.456714
0.554500	1.456396
0.555000	1.453529
0.555500	1.453529
0.556000	1.454803
0.556500	1.455122
0.557000	1.455759
0.557500	1.454166
0.558000	1.454166
0.558500	1.454803
0.559000	1.455759
0.559500	1.454803
0.560000	1.453211
0.560500	1.453211
0.561000	1.454803
0.561500	1.456396
0.562000	1.454803
0.562500	1.452573
0.563000	1.453848
0.563500	1.457670
0.564000	1.456714
0.564500	1.452255
0.565000	1.453529
0.565500	1.457352
0.566000	1.455759
0.566500	1.453211
0.567000	1.453848
0.567500	1.455759
0.568000	1.456396
0.568500	1.454485
0.569000	1.454166
0.569500	1.454803
0.570000	1.455759
0.570500	1.456396
0.571000	1.455122
0.571500	1.454485
0.572000	1.454485
0.572500	1.455759
0.573000	1.456714
0.573500	1.454803
0.574000	1.454166
0.574500	1.455440
0.575000	1.457352
0.575500	1.455759
0.576000	1.451936
0.576500	1.455122
0.577000	1.458944
0.577500	1.456396
0.578000	1.451936
0.578500	1.454803
0.579000	1.457670
0.579500	1.456077
0.580000	1.453529
0.580500	1.454166
0.581000	1.455759
0.581500	1.455759
0.582000	1.455122
0.582500	1.455122
0.583000	1.454485
0.583500	1.455440
0.584000	1.455122
0.584500	1.455122
0.585000	1.454485
0.585500	1.454803
0.586000	1.455759
0.586500	1.456396
0.587000	1.454485
0.587500	1.453848
0.588000	1.455122
0.588500	1.457352
0.589000	1.456714
0.589500	1.451618
0.590000	1.454485
0.590500	1.457670
0.591000	1.456714
0.591500	1.452573
0.592000	1.454485
0.592500	1.457989
0.593000	1.457352
0.593500	1.453211
0.594000	1.454166
0.594500	1.456714
0.595000	1.456396
0.595500	1.455440
0.596000	1.454803
0.596500	1.455440
0.597000	1.455440
0.597500	1.456396
0.598000	1.455759
0.598500	1.454485
0.599000	1.455122
0.599500	1.455759
0.600000	1.456714
0.600500	1.454803
0.601000	1.453529
0.601500	1.455440
0.602000	1.458307
0.602500	1.455759
0.603000	1.451936
0.603500	1.454166
0.604000	1.457670
0.604500	1.456714
0.605000	1.453211
0.605500	1.454166
0.606000	1.457670
0.606500	1.456396
0.607000	1.453529
0.607500	1.453848
0.608000	1.455440
0.608500	1.456396
0.609000	1.455440
0.609500	1.454803
0.610000	1.454803
0.610500	1.455122
0.611000	1.456714
0.611500	1.456396
0.612000	1.454485
0.612500	1.454485
0.613000	1.456396
0.613500	1.456714
0.614000	1.455440
0.614500	1.453211
0.615000	1.455759
0.615500	1.458626
0.616000	1.457033
0.616500	1.453211
0.617000	1.454803
0.617500	1.458626
0.618000	1.456714
0.618500	1.452255
0.619000	1.454485
0.619500	1.458626
0.620000	1.456077
0.620500	1.454166
0.621000	1.454485
0.621500	1.456396
0.622000	1.454803
0.622500	1.455759
0.623000	1.455440
0.623500	1.454803
0.624000	1.455440
0.624500	1.456396
0.625000	1.456396
0.625500	1.454803
0.626000	1.455122
0.626500	1.455440
0.627000	1.456396
0.627500	1.454485
0.628000	1.453211
0.628500	1.455440
0.629000	1.458626
0.629500	1.456714
0.630000	1.452255
0.630500	1.454166
0.631000	1.458307
0.631500	1.456077
0.632000	1.453848
0.632500	1.453529
0.633000	1.456714
0.633500	1.455759
0.634000	1.455759
0.634500	1.454166
0.635000	1.455122
0.635500	1.455122
0.636000	1.456077
0.636500	1.455440
0.637000	1.454803
0.637500	1.454803
0.638000	1.455440
0.638500	1.456077
0.639000	1.455122
0.639500	1.453848
0.640000	1.455759
0.640500	1.457352
0.641000	1.456077
0.641500	1.452892
0.642000	1.453848
0.642500	1.458626
0.643000	1.456396
0.643500	1.452255
0.644000	1.454485
0.644500	1.458307
0.645000	1.456714
0.645500	1.453848
0.646000	1.454485
0.646500	1.456077
0.647000	1.456396
0.647500	1.455122
0.648000	1.455122
0.648500	1.454485
0.649000	1.455759
0.649500	1.456077
0.650000	1.456077
0.650500	1.455122
0.651000	1.455440
0.651500	1.455440
0.652000	1.456396
0.652500	1.455440
0.653000	1.454166
0.653500	1.455122
0.654000	1.457670
0.654500	1.456077
0.655000	1.452573
0.655500	1.454485
0.656000	1.458626
0.656500	1.456714
0.657000	1.452892
0.657500	1.454485
0.658000	1.458626
0.658500	1.456714
0.659000	1.454166
0.659500	1.455122
0.660000	1.456714
0.660500	1.456714
0.661000	1.456396
0.661500	1.456077
0.662000	1.455759
0.662500	1.456077
0.663000	1.456396
0.663500	1.456714
0.664000	1.455122
0.664500	1.455440
0.665000	1.456077
0.665500	1.457989
0.666000	1.455759
0.666500	1.453211
0.667000	1.455759
0.667500	1.458944
0.668000	1.456714
0.668500	1.452573
0.669000	1.455440
0.669500	1.459263
0.670000	1.456396
0.670500	1.453848
0.671000	1.454803
0.671500	1.457033
0.672000	1.456714
0.672500	1.455122
0.673000	1.455122
0.673500	1.456396
0.674000	1.456077
0.674500	1.456396
0.675000	1.454803
0.675500	1.455122
0.676000	1.455440
0.676500	1.456396
0.677000	1.456077
0.677500	1.455122
0.678000	1.454166
0.678500	1.455440
0.679000	1.457352
0.679500	1.455440
0.680000	1.452573
0.680500	1.454803
0.681000	1.458626
0.681500	1.456714
0.682000	1.452255
0.682500	1.454803
0.683000	1.457352
0.683500	1.457033
0.684000	1.455440
0.684500	1.454803
0.685000	1.456077
0.685500	1.456714
0.686000	1.456077
0.686500	1.456077
0.687000	1.455440
0.687500	1.455440
0.688000	1.456714
0.688500	1.455759
0.689000	1.455122
0.689500	1.455759
0.690000	1.456396
0.690500	1.457352
0.691000	1.457033
0.691500	1.453211
0.692000	1.455759
0.692500	1.459581
0.693000	1.457033
0.693500	1.452573
0.694000	1.455440
0.694500	1.458944
0.695000	1.457033
0.695500	1.454166
0.696000	1.454803
0.696500	1.456714
0.697000	1.456714
0.697500	1.456714
0.698000	1.455759
0.698500	1.455759
0.699000	1.455440
0.699500	1.456714
0.700000	1.456714
0.700500	1.455759
0.701000	1.455122
0.701500	1.456077
0.702000	1.457352
0.702500	1.456077
0.703000	1.453529
0.703500	1.456077
0.704000	1.457989
0.704500	1.456077
0.705000	1.453211
0.705500	1.455759
0.706000	1.459581
0.706500	1.457670
0.707000	1.453211
0.707500	1.455122
0.708000	1.457670
0.708500	1.457352
0.709000	1.454803
0.709500	1.455122
0.710000	1.457033
0.710500	1.457033
0.711000	1.456077
0.711500	1.455759
0.712000	1.455759
0.712500	1.456077
0.713000	1.457670
0.713500	1.456077
0.714000	1.455440
0.714500	1.455122
0.715000	1.456396
0.715500	1.457033
0.716000	1.456077
0.716500	1.453529
0.717000	1.455122
0.717500	1.459263
0.718000	1.455759
0.718500	1.452573
0.719000	1.455440
0.719500	1.458944
0.720000	1.456396
0.720500	1.453529
0.721000	1.454803
0.721500	1.457352
0.722000	1.456077
0.722500	1.455440
0.723000	1.454485
0.723500	1.455440
0.724000	1.456077
0.724500	1.456396
0.725000	1.455122
0.725500	1.455440
0.726000	1.454803
0.726500	1.456396
0.727000	1.456077
0.727500	1.454803
0.728000	1.453848
0.728500	1.455122
0.729000	1.458307
0.729500	1.455759
0.730000	1.452573
0.730500	1.454485
0.731000	1.457989
0.731500	1.456396
0.732000	1.452255
0.732500	1.454485
0.733000	1.457670
0.733500	1.456396
0.734000	1.453848
0.734500	1.453529
0.735000	1.455440
0.735500	1.456396
0.736000	1.455759
0.736500	1.455122
0.737000	1.455122
0.737500	1.455759
0.738000	1.456077
0.738500	1.456077
0.739000	1.454166
0.739500	1.454485
0.740000	1.456714
0.740500	1.457670
0.741000	1.456077
0.741500	1.453848
0.742000	1.455440
0.742500	1.458944
0.743000	1.456396
0.743500	1.452573
0.744000	1.455122
0.744500	1.458307
0.745000	1.457033
0.745500	1.453529
0.746000	1.454166
0.746500	1.457989
0.747000	1.457033
0.747500	1.455440
0.748000	1.454485
0.748500	1.456396
0.749000	1.455440
0.749500	1.455759
0.750000	1.455440
0.750500	1.455122
0.751000	1.455440
0.751500	1.457033
0.752000	1.456714
0.752500	1.455440
0.753000	1.454166
0.753500	1.456077
0.754000	1.458307
0.754500	1.456077
0.755000	1.453848
0.755500	1.455122
0.756000	1.458944
0.756500	1.456714
0.757000	1.453211
0.757500	1.456077
0.758000	1.458307
0.758500	1.457670
0.759000	1.454485
0.759500	1.455122
0.760000	1.456077
0.760500	1.457033
0.761000	1.456714
0.761500	1.456714
0.762000	1.454485
0.762500	1.456077
0.763000	1.457033
0.763500	1.455759
0.764000	1.454803
0.764500	1.454803
0.765000	1.456714
0.765500	1.457033
0.766000	1.456077
0.766500	1.452573
0.767000	1.455122
0.767500	1.458626
0.768000	1.456077
0.768500	1.451936
0.769000	1.453848
0.769500	1.458307
0.770000	1.457352
0.770500	1.454166
0.771000	1.454803
0.771500	1.457352
0.772000	1.456396
0.772500	1.455122
0.773000	1.455440
0.773500	1.455122
0.774000	1.455759
0.774500	1.456396
0.775000	1.456714
0.775500	1.455440
0.776000	1.454803
0.776500	1.455759
0.777000	1.457352
0.777500	1.455759
0.778000	1.454166
0.778500	1.455759
0.779000	1.458307
0.779500	1.456077
0.780000	1.452892
0.780500	1.455440
0.781000	1.458626
0.781500	1.457033
0.782000	1.454166
0.782500	1.455440
0.783000	1.457670
0.783500	1.457033
0.784000	1.456077
0.784500	1.456714
0.785000	1.456077
0.785500	1.457033
0.786000	1.457033
0.786500	1.456714
0.787000	1.454485
0.787500	1.456077
0.788000	1.456714
0.788500	1.457352
0.789000	1.456396
0.789500	1.454166
0.790000	1.456396
0.790500	1.458307
0.791000	1.456077
0.791500	1.452255
0.792000	1.455440
0.792500	1.459263
0.793000	1.456714
0.793500	1.453848
0.794000	1.454485
0.794500	1.457989
0.795000	1.456077
0.795500	1.455440
0.796000	1.455440
0.796500	1.457033
0.797000	1.456396
0.797500	1.456077
0.798000	1.455440
0.798500	1.455440
0.799000	1.455122
0.799500	1.457352
0.800000	1.456714
0.800500	1.454803
0.801000	1.454803
0.801500	1.456714
0.802000	1.457989
0.802500	1.456396
0.803000	1.453529
0.803500	1.455440
0.804000	1.459263
0.804500	1.457033
0.805000	1.453211
0.805500	1.454803
0.806000	1.459263
0.806500	1.456714
0.807000	1.453529
0.807500	1.455759
0.808000	1.457352
0.808500	1.456714
0.809000	1.455440
0.809500	1.455759
0.810000	1.456077
0.810500	1.456077
0.811000	1.457033
0.811500	1.456396
0.812000	1.455440
0.812500	1.455759
0.813000	1.456714
0.813500	1.456077
0.814000	1.455440
0.814500	1.454166
0.815000	1.455122
0.815500	1.458626
0.816000	1.456714
0.816500	1.452892
0.817000	1.454803
0.817500	1.458944
0.818000	1.456714
0.818500	1.453211
0.819000	1.454803
0.819500	1.457670
0.820000	1.457352
0.820500	1.455122
0.821000	1.455440
0.821500	1.456396
0.822000	1.456714
0.822500	1.455122
0.823000	1.456077
0.823500	1.455440
0.824000	1.456396
0.824500	1.456396
0.825000	1.457033
0.825500	1.455122
0.826000	1.455440
0.826500	1.455759
0.827000	1.457670
0.827500	1.455759
0.828000	1.454166
0.828500	1.455759
0.829000	1.459263
0.829500	1.456714
0.830000	1.452573
0.830500	1.454166
0.831000	1.458307
0.831500	1.457670
0.832000	1.453848
0.832500	1.454803
0.833000	1.456714
0.833500	1.456714
0.834000	1.454485
0.834500	1.455122
0.835000	1.455759
0.835500	1.456396
0.836000	1.455759
0.836500	1.455440
0.837000	1.454803
0.837500	1.455122
0.838000	1.456396
0.838500	1.456396
0.839000	1.455759
0.839500	1.455122
0.840000	1.456077
0.840500	1.457670
0.841000	1.456077
0.841500	1.453211
0.842000	1.456077
0.842500	1.459581
0.843000	1.457033
0.843500	1.452892
0.844000	1.455759
0.844500	1.458944
0.845000	1.457033
0.845500	1.454485
0.846000	1.455122
0.846500	1.457670
0.847000	1.456714
0.847500	1.456077
0.848000	1.456396
0.848500	1.456396
0.849000	1.456077
0.849500	1.457352
0.850000	1.456077
0.850500	1.455122
0.851000	1.456077
0.851500	1.457352
0.852000	1.457670
0.852500	1.454803
0.853000	1.455440
0.853500	1.456396
0.854000	1.457989
0.854500	1.456077
0.855000	1.453211
0.855500	1.455759
0.856000	1.460218
0.856500	1.457033
0.857000	1.453529
0.857500	1.455122
0.858000	1.458307
0.858500	1.457352
0.859000	1.455759
0.859500	1.455440
0.860000	1.456714
0.860500	1.455759
0.861000	1.456714
0.861500	1.455759
0.862000	1.455440
0.862500	1.456396
0.863000	1.457033
0.863500	1.457033
0.864000	1.455759
0.864500	1.455440
0.865000	1.456714
0.865500	1.458626
0.866000	1.456396
0.866500	1.453848
0.867000	1.455759
0.867500	1.459581
0.868000	1.457033
0.868500	1.452892
0.869000	1.455122
0.869500	1.459581
0.870000	1.457352
0.870500	1.454166
0.871000	1.455440
0.871500	1.457989
0.872000	1.456714
0.872500	1.455759
0.873000	1.455440
0.873500	1.457352
0.874000	1.457033
0.874500	1.457352
0.875000	1.457033
0.875500	1.456396
0.876000	1.456077
0.876500	1.457033
0.877000	1.457989
0.877500	1.456396
0.878000	1.455759
0.878500	1.457352
0.879000	1.458944
0.879500	1.457033
0.880000	1.453848
0.880500	1.456077
0.881000	1.459900
0.881500	1.457352
0.882000	1.453529
0.882500	1.455440
0.883000	1.458307
0.883500	1.457989
0.884000	1.455440
0.884500	1.455759
0.885000	1.456396
0.885500	1.456396
0.886000	1.457670
0.886500	1.456077
0.887000	1.455440
0.887500	1.456714
0.888000	1.457033
0.888500	1.457033
0.889000	1.455759
0.889500	1.455122
0.890000	1.457033
0.890500	1.458944
0.891000	1.456396
0.891500	1.453848
0.892000	1.456714
0.892500	1.458944
0.893000	1.457352
0.893500	1.454166
0.894000	1.454803
0.894500	1.459581
0.895000	1.457989
0.895500	1.453848
0.896000	1.456077
0.896500	1.457989
0.897000	1.457352
0.897500	1.456396
0.898000	1.455440
0.898500	1.456396
0.899000	1.456077
0.899500	1.456714
0.900000	1.456077
0.900500	1.455122
0.901000	1.456077
0.901500	1.457033
0.902000	1.457352
0.902500	1.455759
0.903000	1.454166
0.903500	1.456396
0.904000	1.457989
0.904500	1.455759
0.905000	1.454485
0.905500	1.455440
0.906000	1.458944
0.906500	1.457033
0.907000	1.452573
0.907500	1.455122
0.908000	1.458944
0.908500	1.456714
0.909000	1.455122
0.909500	1.454485
0.910000	1.457033
0.910500	1.456396
0.911000	1.455759
0.911500	1.455440
0.912000	1.456077
0.912500	1.456396
0.913000	1.456714
0.913500	1.455759
0.914000	1.455440
0.914500	1.455440
0.915000	1.455440
0.915500	1.457352
0.916000	1.457352
0.916500	1.454166
0.917000	1.456396
0.917500	1.458307
0.918000	1.456077
0.918500	1.453529
0.919000	1.455122
0.919500	1.459263
0.920000	1.457033
0.920500	1.454166
0.921000	1.455759
0.921500	1.457989
0.922000	1.456714
0.922500	1.456077
0.923000	1.456396
0.923500	1.456714
0.924000	1.456714
0.924500	1.456714
0.925000	1.456396
0.925500	1.455440
0.926000	1.456714
0.926500	1.457670
0.927000	1.456714
0.927500	1.456396
0.928000	1.455440
0.928500	1.457352
0.929000	1.457670
0.929500	1.456077
0.930000	1.454166
0.930500	1.456396
0.931000	1.459263
0.931500	1.456714
0.932000	1.453529
0.932500	1.455440
0.933000	1.458944
0.933500	1.457033
0.934000	1.453848
0.934500	1.455122
0.935000	1.457352
0.935500	1.457352
0.936000	1.455440
0.936500	1.455440
0.937000	1.456077
0.937500	1.456077
0.938000	1.457033
0.938500	1.456077
0.939000	1.455440
0.939500	1.455759
0.940000	1.457033
0.940500	1.457352
0.941000	1.454803
0.941500	1.454166
0.942000	1.456396
0.942500	1.458626
0.943000	1.456077
0.943500	1.452892
0.944000	1.455440
0.944500	1.459263
0.945000	1.457670
0.945500	1.454485
0.946000	1.455440
0.946500	1.458307
0.947000	1.457670
0.947500	1.454803
0.948000	1.455122
0.948500	1.456396
0.949000	1.456077
0.949500	1.456077
0.950000	1.455440
0.950500	1.455440
0.951000	1.456396
0.951500	1.457670
0.952000	1.456077
0.952500	1.455759
0.953000	1.455759
0.953500	1.456714
0.954000	1.457670
0.954500	1.456077
0.955000	1.454485
0.955500	1.455440
0.956000	1.458626
0.956500	1.455759
0.957000	1.453529
0.957500	1.455440
0.958000	1.458944
0.958500	1.457352
0.959000	1.452573
0.959500	1.455759
0.960000	1.459900
0.960500	1.457352
0.961000	1.454166
0.961500	1.455122
0.962000	1.457670
0.962500	1.457352
0.963000	1.456077
0.963500	1.455759
0.964000	1.457352
0.964500	1.456714
0.965000	1.457352
0.965500	1.456077
0.966000	1.455440
0.966500	1.455759
0.967000	1.457352
0.967500	1.457352
0.968000	1.456077
0.968500	1.454485
0.969000	1.456396
0.969500	1.458626
0.970000	1.456077
0.970500	1.453848
0.971000	1.455440
0.971500	1.458626
0.972000	1.456714
0.972500	1.453211
0.973000	1.455440
0.973500	1.458944
0.974000	1.457033
0.974500	1.453529
0.975000	1.455440
0.975500	1.457670
0.976000	1.456714
0.976500	1.455440
0.977000	1.455440
0.977500	1.456077
0.978000	1.456714
0.978500	1.457352
0.979000	1.456396
0.979500	1.455122
0.980000	1.455122
0.980500	1.456714
0.981000	1.457670
0.981500	1.455440
0.982000	1.455122
0.982500	1.456396
0.983000	1.458626
0.983500	1.456077
0.984000	1.452892
0.984500	1.455122
0.985000	1.459263
0.985500	1.457989
0.986000	1.452892
0.986500	1.454485
0.987000	1.458626
0.987500	1.457670
0.988000	1.454485
0.988500	1.455122
0.989000	1.457033
0.989500	1.457352
0.990000	1.455759
0.990500	1.455122
0.991000	1.455440
0.991500	1.456077
0.992000	1.457352
0.992500	1.456077
0.993000	1.454803
0.993500	1.455440
0.994000	1.456714
0.994500	1.457033
0.995000	1.456077
0.995500	1.453848
0.996000	1.455759
0.996500	1.458626
0.997000	1.456714
0.997500	1.452892
0.998000	1.455440
0.998500	1.458944
0.999000	1.456077
0.999500	1.453529
1.000000	1.455122
1.000500	1.458307
1.001000	1.456714
1.001500	1.454166
1.002000	1.454485
1.002500	1.456396
1.003000	1.457352
1.003500	1.456077
1.004000	1.455122
1.004500	1.456077
1.005000	1.456714
1.005500	1.457670
1.006000	1.456396
1.006500	1.455440
1.007000	1.456714
1.007500	1.456714
1.008000	1.457989
1.008500	1.456396
1.009000	1.454803
1.009500	1.456396
1.010000	1.458944
1.010500	1.457033
1.011000	1.452892
1.011500	1.455759
1.012000	1.459900
1.012500	1.458307
1.013000	1.454166
1.013500	1.456077
1.014000	1.458944
1.014500	1.457670
1.015000	1.455122
1.015500	1.455759
1.016000	1.457670
1.016500	1.457670
1.017000	1.456077
1.017500	1.455759
1.018000	1.456396
1.018500	1.456077
1.019000	1.457989
1.019500	1.456077
1.020000	1.456077
1.020500	1.455759
1.021000	1.457352
1.021500	1.457670
1.022000	1.457033
1.022500	1.455440
1.023000	1.456714
1.023500	1.458944
1.024000	1.456714
1.024500	1.453529
1.025000	1.456077
1.025500	1.459581
1.026000	1.457670
1.026500	1.453848
1.027000	1.454803
1.027500	1.458944
1.028000	1.457670
1.028500	1.454485
1.029000	1.456077
1.029500	1.457352
1.030000	1.457352
1.030500	1.456396
1.031000	1.455759
1.031500	1.456077
1.032000	1.456714
1.032500	1.457989
1.033000	1.456396
1.033500	1.455759
1.034000	1.456077
1.034500	1.457033
1.035000	1.457352
1.035500	1.456077
1.036000	1.454803
1.036500	1.456714
1.037000	1.458944
1.037500	1.457033
1.038000	1.454166
1.038500	1.454803
1.039000	1.459263
1.039500	1.457352
1.040000	1.453529
1.040500	1.455759
1.041000	1.458307
1.041500	1.457352
1.042000	1.454166
1.042500	1.456396
1.043000	1.457352
1.043500	1.457352
1.044000	1.456396
1.044500	1.455759
1.045000	1.455759
1.045500	1.456714
1.046000	1.456714
1.046500	1.455440
1.047000	1.455122
1.047500	1.456396
1.048000	1.457352
1.048500	1.456714
1.049000	1.455759
1.049500	1.455122
1.050000	1.455759
1.050500	1.457670
1.051000	1.456077
1.051500	1.452892
1.052000	1.454803
1.052500	1.458626
1.053000	1.456077
1.053500	1.452892
1.054000	1.454803
1.054500	1.458626
1.055000	1.456714
1.055500	1.454485
1.056000	1.455122
1.056500	1.457352
1.057000	1.456396
1.057500	1.455440
1.058000	1.455759
1.058500	1.455759
1.059000	1.456396
1.059500	1.457033
1.060000	1.455440
1.060500	1.454803
1.061000	1.455759
1.061500	1.456714
1.062000	1.456714
1.062500	1.455759
1.063000	1.454803
1.063500	1.456714
1.064000	1.457989
1.064500	1.455759
1.065000	1.453211
1.065500	1.455122
1.066000	1.458626
1.066500	1.456714
1.067000	1.452573
1.067500	1.454485
1.068000	1.458626
1.068500	1.456396
1.069000	1.453529
1.069500	1.454485
1.070000	1.457033
1.070500	1.456396
1.071000	1.455440
1.071500	1.454803
1.072000	1.455440
1.072500	1.456714
1.073000	1.456714
1.073500	1.456077
1.074000	1.455122
1.074500	1.455759
1.075000	1.456077
1.075500	1.457670
1.076000	1.456396
1.076500	1.454166
1.077000	1.455122
1.077500	1.457989
1.078000	1.456077
1.078500	1.453211
1.079000	1.454485
1.079500	1.458307
1.080000	1.457033
1.080500	1.452255
1.081000	1.454485
1.081500	1.458944
1.082000	1.456396
1.082500	1.454166
1.083000	1.454485
1.083500	1.456714
1.084000	1.456396
1.084500	1.456396
1.085000	1.456077
1.085500	1.455440
1.086000	1.456077
1.086500	1.457033
1.087000	1.456396
1.087500	1.455440
1.088000	1.456077
1.088500	1.456396
1.089000	1.457352
1.089500	1.456077
1.090000	1.454166
1.090500	1.455759
1.091000	1.457989
1.091500	1.456396
1.092000	1.453529
1.092500	1.455759
1.093000	1.459263
1.093500	1.455440
1.094000	1.452892
1.094500	1.455440
1.095000	1.457670
1.095500	1.457033
1.096000	1.454803
1.096500	1.453848
1.097000	1.456396
1.097500	1.456714
1.098000	1.456396
1.098500	1.456077
1.099000	1.455759
1.099500	1.456077
1.100000	1.457033
1.100500	1.456396
1.101000	1.454485
1.101500	1.456077
1.102000	1.456714
1.102500	1.457989
1.103000	1.456396
1.103500	1.453211
1.104000	1.455759
1.104500	1.458944
1.105000	1.456714
1.105500	1.453211
1.106000	1.454485
1.106500	1.457989
1.107000	1.456714
1.107500	1.453848
1.108000	1.455122
1.108500	1.457352
1.109000	1.456396
1.109500	1.454803
1.110000	1.454166
1.110500	1.455440
1.111000	1.455440
1.111500	1.457033
1.112000	1.454803
1.112500	1.455759
1.113000	1.455440
1.113500	1.457033
1.114000	1.457033
1.114500	1.455122
1.115000	1.453529
1.115500	1.455440
1.116000	1.457989
1.116500	1.456396
1.117000	1.451936
1.117500	1.455122
1.118000	1.458626
1.118500	1.456396
1.119000	1.451299
1.119500	1.454485
1.120000	1.457670
1.120500	1.456396
1.121000	1.453529
1.121500	1.454485
1.122000	1.456714
1.122500	1.456077
1.123000	1.455122
1.123500	1.454803
1.124000	1.455440
1.124500	1.455759
1.125000	1.456077
1.125500	1.456714
1.126000	1.455440
1.126500	1.455440
1.127000	1.456396
1.127500	1.457352
1.128000	1.455440
1.128500	1.454485
1.129000	1.456396
1.129500	1.458307
1.130000	1.457033
1.130500	1.453848
1.131000	1.455759
1.131500	1.459263
1.132000	1.456396
1.132500	1.453529
1.133000	1.454803
1.133500	1.458626
1.134000	1.457352
1.134500	1.453529
1.135000	1.454166
1.135500	1.457989
1.136000	1.456396
1.136500	1.455759
1.137000	1.455759
1.137500	1.456077
1.138000	1.456396
1.138500	1.456396
1.139000	1.456396
1.139500	1.455122
1.140000	1.455759
1.140500	1.457670
1.141000	1.457352
1.141500	1.455440
1.142000	1.454485
1.142500	1.455759
1.143000	1.458944
1.143500	1.456396
1.144000	1.452892
1.144500	1.455122
1.145000	1.459900
1.145500	1.457989
1.146000	1.453848
1.146500	1.455122
1.147000	1.458626
1.147500	1.457033
1.148000	1.453848
1.148500	1.455440
1.149000	1.456714
1.149500	1.456077
1.150000	1.454803
1.150500	1.455122
1.151000	1.455759
1.151500	1.456077
1.152000	1.457033
1.152500	1.455759
1.153000	1.455440
1.153500	1.455440
1.154000	1.457033
1.154500	1.456714
1.155000	1.455122
1.155500	1.455440
1.156000	1.455759
1.156500	1.457352
1.157000	1.456714
1.157500	1.453848
1.158000	1.454803
1.158500	1.458626
1.159000	1.457033
1.159500	1.452892
1.160000	1.455122
1.160500	1.458944
1.161000	1.457352
1.161500	1.453848
1.162000	1.454803
1.162500	1.457352
1.163000	1.457033
1.163500	1.454803
1.164000	1.455122
1.164500	1.456714
1.165000	1.456396
1.165500	1.456396
1.166000	1.455440
1.166500	1.455759
1.167000	1.456077
1.167500	1.457352
1.168000	1.456714
1.168500	1.456077
1.169000	1.455122
1.169500	1.456714
1.170000	1.457670
1.170500	1.457033
1.171000	1.453529
1.171500	1.455759
1.172000	1.458944
1.172500	1.457033
1.173000	1.453529
1.173500	1.455122
1.174000	1.459581
1.174500	1.457989
1.175000	1.454485
1.175500	1.455440
1.176000	1.457989
1.176500	1.457033
1.177000	1.455759
1.177500	1.456714
1.178000	1.456396
1.178500	1.456714
1.179000	1.457989
1.179500	1.456396
1.180000	1.455122
1.180500	1.457033
1.181000	1.457670
1.181500	1.456077
1.182000	1.455759
1.182500	1.455440
1.183000	1.456396
1.183500	1.456714
1.184000	1.456396
1.184500	1.454166
1.185000	1.456396
1.185500	1.459263
1.186000	1.456714
1.186500	1.453529
1.187000	1.455759
1.187500	1.460218
1.188000	1.456714
1.188500	1.453529
1.189000	1.454485
1.189500	1.458944
1.190000	1.457670
1.190500	1.455759
1.191000	1.455122
1.191500	1.457033
1.192000	1.457670
1.192500	1.456396
1.193000	1.455440
1.193500	1.456714
1.194000	1.456396
1.194500	1.457352
1.195000	1.456077
1.195500	1.456077
1.196000	1.455122
1.196500	1.456714
1.197000	1.457033
1.197500	1.456077
1.198000	1.454166
1.198500	1.456077
1.199000	1.458626
1.199500	1.457033
1.200000	1.453211
1.200500	1.455122
1.201000	1.458944
1.201500	1.457033
1.202000	1.453211
1.202500	1.454803
1.203000	1.458626
1.203500	1.457670
1.204000	1.454166
1.204500	1.454485
1.205000	1.457352
1.205500	1.456396
1.206000	1.456714
1.206500	1.455440
1.207000	1.456714
1.207500	1.456396
1.208000	1.456714
1.208500	1.456077
1.209000	1.455759
1.209500	1.456077
1.210000	1.456714
1.210500	1.457352
1.211000	1.456077
1.211500	1.454803
1.212000	1.455122
1.212500	1.457989
1.213000	1.456396
1.213500	1.452892
1.214000	1.455122
1.214500	1.457670
1.215000	1.456396
1.215500	1.452573
1.216000	1.454485
1.216500	1.458626
1.217000	1.457352
1.217500	1.454166
1.218000	1.454803
1.218500	1.457352
1.219000	1.456714
1.219500	1.456077
1.220000	1.456077
1.220500	1.456077
1.221000	1.456396
1.221500	1.456714
1.222000	1.456077
1.222500	1.457033
1.223000	1.456396
1.223500	1.457352
1.224000	1.457033
1.224500	1.455440
1.225000	1.454803
1.225500	1.456714
1.226000	1.457989
1.226500	1.457033
1.227000	1.453848
1.227500	1.455440
1.228000	1.458626
1.228500	1.456714
1.229000	1.454166
1.229500	1.455440
1.230000	1.458626
1.230500	1.457670
1.231000	1.454485
1.231500	1.455122
1.232000	1.456714
1.232500	1.457033
1.233000	1.456077
1.233500	1.456077
1.234000	1.455759
1.234500	1.456714
1.235000	1.457033
1.235500	1.456077
1.236000	1.455122
1.236500	1.454803
1.237000	1.456396
1.237500	1.457033
1.238000	1.456077
1.238500	1.454485
1.239000	1.455759
1.239500	1.458307
1.240000	1.456396
1.240500	1.452892
1.241000	1.455440
1.241500	1.458307
1.242000	1.456714
1.242500	1.452573
1.243000	1.453848
1.243500	1.458307
1.244000	1.457033
1.244500	1.452892
1.245000	1.453848
1.245500	1.457352
1.246000	1.456077
1.246500	1.455759
1.247000	1.455440
1.247500	1.455440
1.248000	1.456396
1.248500	1.456077
1.249000	1.455440
1.249500	1.455440
1.250000	1.455122
1.250500	1.457033
1.251000	1.456714
1.251500	1.455440
1.252000	1.453848
1.252500	1.457033
1.253000	1.458307
1.253500	1.457033
1.254000	1.453211
1.254500	1.455759
1.255000	1.460218
1.255500	1.457670
1.256000	1.452892
1.256500	1.455440
1.257000	1.458626
1.257500	1.457033
1.258000	1.454803
1.258500	1.455440
1.259000	1.457670
1.259500	1.456714
1.260000	1.455440
1.260500	1.455759
1.261000	1.455440
1.261500	1.456077
1.262000	1.457670
1.262500	1.455440
1.263000	1.455122
1.263500	1.455759
1.264000	1.456714
1.264500	1.456714
1.265000	1.455440
1.265500	1.454485
1.266000	1.456396
1.266500	1.458307
1.267000	1.456077
1.267500	1.453529
1.268000	1.456396
1.268500	1.459263
1.269000	1.457033
1.269500	1.453529
1.270000	1.455122
1.270500	1.459263
1.271000	1.457033
1.271500	1.454166
1.272000	1.455440
1.272500	1.456396
1.273000	1.456714
1.273500	1.456077
1.274000	1.455440
1.274500	1.455440
1.275000	1.456714
1.275500	1.457352
1.276000	1.456077
1.276500	1.456396
1.277000	1.455440
1.277500	1.457352
1.278000	1.457352
1.278500	1.455759
1.279000	1.455122
1.279500	1.456077
1.280000	1.457989
1.280500	1.456714
1.281000	1.453211
1.281500	1.455440
1.282000	1.458944
1.282500	1.456714
1.283000	1.454166
1.283500	1.455122
1.284000	1.458626
1.284500	1.457033
1.285000	1.454485
1.285500	1.454803
1.286000	1.457033
1.286500	1.457670
1.287000	1.454803
1.287500	1.455122
1.288000	1.456077
1.288500	1.456396
1.289000	1.456396
1.289500	1.455759
1.290000	1.455440
1.290500	1.455759
1.291000	1.456714
1.291500	1.457033
1.292000	1.455440
1.292500	1.454803
1.293000	1.457033
1.293500	1.457989
1.294000	1.455759
1.294500	1.453529
1.295000	1.455759
1.295500	1.458944
1.296000	1.457352
1.296500	1.453529
1.297000	1.454803
1.297500	1.459263
1.298000	1.457033
1.298500	1.452892
1.299000	1.455122
1.299500	1.457033
1.300000	1.457033
1.300500	1.455759
1.301000	1.455122
1.301500	1.455759
1.302000	1.457033
1.302500	1.456077
1.303000	1.456077
1.303500	1.455759
1.304000	1.455759
1.304500	1.456714
1.305000	1.456396
1.305500	1.455440
1.306000	1.454803
1.306500	1.457352
1.307000	1.457352
1.307500	1.457033
1.308000	1.453529
1.308500	1.455759
1.309000	1.458626
1.309500	1.456714
1.310000	1.453848
1.310500	1.455122
1.311000	1.458944
1.311500	1.455759
1.312000	1.454803
1.312500	1.455440
1.313000	1.457033
1.313500	1.456077
1.314000	1.455759
1.314500	1.454485
1.315000	1.455759
1.315500	1.456714
1.316000	1.456714
1.316500	1.455440
1.317000	1.455122
1.317500	1.455440
1.318000	1.457670
1.318500	1.457033
1.319000	1.454803
1.319500	1.454803
1.320000	1.456077
1.320500	1.458944
1.321000	1.455759
1.321500	1.452892
1.322000	1.455122
1.322500	1.459263
1.323000	1.457033
1.323500	1.453211
1.324000	1.455122
1.324500	1.458626
1.325000	1.457352
1.325500	1.454803
1.326000	1.455122
1.326500	1.457352
1.327000	1.457352
1.327500	1.455759
1.328000	1.454803
1.328500	1.455440
1.329000	1.456396
1.329500	1.456396
1.330000	1.455759
1.330500	1.455440
1.331000	1.456396
1.331500	1.456396
1.332000	1.455759
1.332500	1.456077
1.333000	1.455122
1.333500	1.456396
1.334000	1.457989
1.334500	1.456714
1.335000	1.453848
1.335500	1.455440
1.336000	1.458626
1.336500	1.456714
1.337000	1.452892
1.337500	1.454485
1.338000	1.458626
1.338500	1.456714
1.339000	1.453848
1.339500	1.455440
1.340000	1.457670
1.340500	1.456714
1.341000	1.455440
1.341500	1.454803
1.342000	1.455440
1.342500	1.455759
1.343000	1.456714
1.343500	1.455759
1.344000	1.455440
1.344500	1.455122
1.345000	1.456714
1.345500	1.456714
1.346000	1.455122
1.346500	1.454166
1.347000	1.456714
1.347500	1.457670
1.348000	1.455759
1.348500	1.453529
1.349000	1.455440
1.349500	1.459263
1.350000	1.457033
1.350500	1.453529
1.351000	1.455440
1.351500	1.458307
1.352000	1.457352
1.352500	1.454166
1.353000	1.455122
1.353500	1.456396
1.354000	1.457352
1.354500	1.456714
1.355000	1.455759
1.355500	1.455759
1.356000	1.455440
1.356500	1.456714
1.357000	1.456396
1.357500	1.455440
1.358000	1.454485
1.358500	1.456714
1.359000	1.456714
1.359500	1.454485
1.360000	1.453848
1.360500	1.455440
1.361000	1.457352
1.361500	1.455759
1.362000	1.452255
1.362500	1.455122
1.363000	1.457989
1.363500	1.456714
1.364000	1.453211
1.364500	1.454166
1.365000	1.457989
1.365500	1.457352
1.366000	1.454803
1.366500	1.455759
1.367000	1.456714
1.367500	1.457033
1.368000	1.456077
1.368500	1.456077
1.369000	1.455440
1.369500	1.455759
1.370000	1.457670
1.370500	1.456077
1.371000	1.455440
1.371500	1.455440
1.372000	1.455759
1.372500	1.457670
1.373000	1.457033
1.373500	1.454166
1.374000	1.455759
1.374500	1.458307
1.375000	1.457033
1.375500	1.454166
1.376000	1.455122
1.376500	1.458626
1.377000	1.457670
1.377500	1.454485
1.378000	1.455122
1.378500	1.457352
1.379000	1.457352
1.379500	1.456077
1.380000	1.455759
1.380500	1.456077
1.381000	1.457352
1.381500	1.456396
1.382000	1.456077
1.382500	1.455440
1.383000	1.455440
1.383500	1.455759
1.384000	1.457033
1.384500	1.455759
1.385000	1.454485
1.385500	1.456396
1.386000	1.458944
1.386500	1.456714
1.387000	1.453211
1.387500	1.455440
1.388000	1.458944
1.388500	1.456396
1.389000	1.453848
1.389500	1.454803
1.390000	1.458626
1.390500	1.457352
1.391000	1.454485
1.391500	1.455440
1.392000	1.456396
1.392500	1.456396
1.393000	1.456077
1.393500	1.455440
1.394000	1.455759
1.394500	1.455759
1.395000	1.457670
1.395500	1.456714
1.396000	1.456077
1.396500	1.456396
1.397000	1.456714
1.397500	1.458944
1.398000	1.457033
1.398500	1.454485
1.399000	1.456077
1.399500	1.459263
1.400000	1.457033
1.400500	1.453848
1.401000	1.456077
1.401500	1.459581
1.402000	1.458307
1.402500	1.453848
1.403000	1.455122
1.403500	1.458307
1.404000	1.457352
1.404500	1.455440
1.405000	1.455759
1.405500	1.457352
1.406000	1.457670
1.406500	1.456714
1.407000	1.455759
1.407500	1.455440
1.408000	1.456396
1.408500	1.457033
1.409000	1.457033
1.409500	1.454803
1.410000	1.455759
1.410500	1.455759
1.411000	1.457033
1.411500	1.456714
1.412000	1.454166
1.412500	1.456077
1.413000	1.458944
1.413500	1.457033
1.414000	1.453211
1.414500	1.454485
1.415000	1.459263
1.415500	1.457352
1.416000	1.453211
1.416500	1.454803
1.417000	1.458944
1.417500	1.457352
1.418000	1.454485
1.418500	1.455440
1.419000	1.457989
1.419500	1.456396
1.420000	1.456714
1.420500	1.456714
1.421000	1.455440
1.421500	1.456396
1.422000	1.457352
1.422500	1.457352
1.423000	1.456396
1.423500	1.456077
1.424000	1.456714
1.424500	1.456396
1.425000	1.456396
1.425500	1.455122
1.426000	1.456714
1.426500	1.457670
1.427000	1.455440
1.427500	1.453211
1.428000	1.455759
1.428500	1.459581
1.429000	1.457989
1.429500	1.453529
1.430000	1.455759
1.430500	1.458944
1.431000	1.457989
1.431500	1.454166
1.432000	1.454803
1.432500	1.458944
1.433000	1.457352
1.433500	1.455759
1.434000	1.455759
1.434500	1.457033
1.435000	1.456714
1.435500	1.456077
1.436000	1.456396
1.436500	1.455759
1.437000	1.456396
1.437500	1.457352
1.438000	1.456714
1.438500	1.456396
1.439000	1.455440
1.439500	1.457352
1.440000	1.459263
1.440500	1.456077
1.441000	1.453529
1.441500	1.456077
1.442000	1.459900
1.442500	1.457670
1.443000	1.454485
1.443500	1.456077
1.444000	1.458626
1.444500	1.457989
1.445000	1.455440
1.445500	1.455759
1.446000	1.457670
1.446500	1.457352
1.447000	1.456077
1.447500	1.455440
1.448000	1.455759
1.448500	1.456396
1.449000	1.456396
1.449500	1.456396
1.450000	1.454166
1.450500	1.456077
1.451000	1.457670
1.451500	1.457033
1.452000	1.456077
1.452500	1.454803
1.453000	1.455440
1.453500	1.458944
1.454000	1.456714
1.454500	1.453211
1.455000	1.455759
1.455500	1.459581
1.456000	1.457670
1.456500	1.454166
1.457000	1.455440
1.457500	1.458944
1.458000	1.457670
1.458500	1.455759
1.459000	1.456396
1.459500	1.456077
1.460000	1.456396
1.460500	1.456714
1.461000	1.457033
1.461500	1.455122
1.462000	1.457352
1.462500	1.457033
1.463000	1.456714
1.463500	1.456077
1.464000	1.454485
1.464500	1.457352
1.465000	1.457989
1.465500	1.456714
1.466000	1.454803
1.466500	1.456077
1.467000	1.459263
1.467500	1.457033
1.468000	1.453848
1.468500	1.455759
1.469000	1.459263
1.469500	1.457670
1.470000	1.453848
1.470500	1.454803
1.471000	1.457989
1.471500	1.457352
1.472000	1.455122
1.472500	1.456077
1.473000	1.456077
1.473500	1.456077
1.474000	1.456396
1.474500	1.455759
1.475000	1.455759
1.475500	1.456077
1.476000	1.457033
1.476500	1.456714
1.477000	1.455122
1.477500	1.454803
1.478000	1.456714
1.478500	1.457989
1.479000	1.456077
1.479500	1.454166
1.480000	1.455759
1.480500	1.459263
1.481000	1.456714
1.481500	1.453211
1.482000	1.455440
1.482500	1.458944
1.483000	1.456714
1.483500	1.454485
1.484000	1.454803
1.484500	1.457989
1.485000	1.456714
1.485500	1.455759
1.486000	1.456396
1.486500	1.456396
1.487000	1.457352
1.487500	1.457033
1.488000	1.456077
1.488500	1.455122
1.489000	1.456077
1.489500	1.457033
1.490000	1.456714
1.490500	1.455440
1.491000	1.456077
1.491500	1.456396
1.492000	1.457989
1.492500	1.456396
1.493000	1.454485
1.493500	1.456396
1.494000	1.459581
1.494500	1.456396
1.495000	1.453529
1.495500	1.454803
1.496000	1.459581
1.496500	1.457352
1.497000	1.454166
1.497500	1.455122
1.498000	1.458626
1.498500	1.456714
1.499000	1.455122
1.499500	1.455759
1.500000	1.456714
1.500500	1.457033
1.501000	1.457033
1.501500	1.456077
1.502000	1.455759
1.502500	1.456714
1.503000	1.457033
1.503500	1.456396
1.504000	1.456396
1.504500	1.456077
1.505000	1.456714
1.505500	1.457352
1.506000	1.455759
1.506500	1.453848
1.507000	1.456077
1.507500	1.458307
1.508000	1.457033
1.508500	1.453211
1.509000	1.454803
1.509500	1.458944
1.510000	1.456396
1.510500	1.454166
1.511000	1.455759
1.511500	1.457989
1.512000	1.457352
1.512500	1.456077
1.513000	1.456396
1.513500	1.456714
1.514000	1.457352
1.514500	1.456714
1.515000	1.456396
1.515500	1.455759
1.516000	1.456714
1.516500	1.457670
1.517000	1.456714
1.517500	1.457352
1.518000	1.455759
1.518500	1.456396
1.519000	1.458626
1.519500	1.456714
1.520000	1.455440
1.520500	1.456714
1.521000	1.459581
1.521500	1.457670
1.522000	1.453848
1.522500	1.455759
1.523000	1.459263
1.523500	1.457352
1.524000	1.454166
1.524500	1.454803
1.525000	1.457989
1.525500	1.457352
1.526000	1.456714
1.526500	1.455440
1.527000	1.455759
1.527500	1.457352
1.528000	1.457033
1.528500	1.456714
1.529000	1.455440
1.529500	1.456077
1.530000	1.457033
1.530500	1.457033
1.531000	1.455759
1.531500	1.455759
1.532000	1.456396
1.532500	1.457989
1.533000	1.456396
1.533500	1.453529
1.534000	1.456077
1.534500	1.459263
1.535000	1.457033
1.535500	1.452892
1.536000	1.454803
1.536500	1.458944
1.537000	1.457670
1.537500	1.454166
1.538000	1.456396
1.538500	1.457989
1.539000	1.457033
1.539500	1.455759
1.540000	1.455759
1.540500	1.457352
1.541000	1.457352
1.541500	1.456714
1.542000	1.457033
1.542500	1.456396
1.543000	1.457033
1.543500	1.457670
1.544000	1.457033
1.544500	1.455759
1.545000	1.455759
1.545500	1.457033
1.546000	1.457989
1.546500	1.456077
1.547000	1.454485
1.547500	1.456077
1.548000	1.458307
1.548500	1.457352
1.549000	1.452892
1.549500	1.455440
1.550000	1.459581
1.550500	1.457670
1.551000	1.453529
1.551500	1.454166
1.552000	1.459263
1.552500	1.457352
1.553000	1.454803
1.553500	1.455122
1.554000	1.455759
1.554500	1.456396
1.555000	1.455440
1.555500	1.455759
1.556000	1.456077
1.556500	1.456714
1.557000	1.456714
1.557500	1.455759
1.558000	1.455759
1.558500	1.455440
1.559000	1.457033
1.559500	1.457670
1.560000	1.455759
1.560500	1.454803
1.561000	1.457033
1.561500	1.458626
1.562000	1.457033
1.562500	1.452892
1.563000	1.455122
1.563500	1.459581
1.564000	1.457352
1.564500	1.453529
1.565000	1.455759
1.565500	1.457670
1.566000	1.457989
1.566500	1.455759
1.567000	1.455759
1.567500	1.457352
1.568000	1.457033
1.568500	1.456714
1.569000	1.457033
1.569500	1.456396
1.570000	1.456396
1.570500	1.457989
1.571000	1.456714
1.571500	1.456077
1.572000	1.456077
1.572500	1.456396
1.573000	1.457989
1.573500	1.456396
1.574000	1.454485
1.574500	1.455440
1.575000	1.458626
1.575500	1.456714
1.576000	1.453529
1.576500	1.456077
1.577000	1.459263
1.577500	1.457670
1.578000	1.454485
1.578500	1.454803
1.579000	1.458626
1.579500	1.456714
1.580000	1.455122
1.580500	1.455759
1.581000	1.456714
1.581500	1.456714
1.582000	1.458307
1.582500	1.456396
1.583000	1.454803
1.583500	1.456077
1.584000	1.457352
1.584500	1.456396
1.585000	1.455440
1.585500	1.455759
1.586000	1.457033
1.586500	1.457670
1.587000	1.456714
1.587500	1.453848
1.588000	1.455759
1.588500	1.459581
1.589000	1.457033
1.589500	1.453211
1.590000	1.455122
1.590500	1.459263
1.591000	1.457352
1.591500	1.453848
1.592000	1.454803
1.592500	1.457352
1.593000	1.457352
1.593500	1.455440
1.594000	1.455759
1.594500	1.455759
1.595000	1.456714
1.595500	1.457033
1.596000	1.457033
1.596500	1.455759
1.597000	1.456396
1.597500	1.456714
1.598000	1.457352
1.598500	1.456396
1.599000	1.455122
1.599500	1.456077
1.600000	1.458944
1.600500	1.456714
1.601000	1.453529
1.601500	1.456396
1.602000	1.459263
1.602500	1.457670
1.603000	1.453529
1.603500	1.455440
1.604000	1.458307
1.604500	1.457670
1.605000	1.454803
1.605500	1.454803
1.606000	1.457670
1.606500	1.457352
1.607000	1.456077
1.607500	1.455759
1.608000	1.455759
1.608500	1.456714
1.609000	1.457033
1.609500	1.456077
1.610000	1.456077
1.610500	1.456077
1.611000	1.456714
1.611500	1.456077
1.612000	1.455759
1.612500	1.454166
1.613000	1.456714
1.613500	1.457989
1.614000	1.456077
1.614500	1.453529
1.615000	1.455440
1.615500	1.458944
1.616000	1.455759
1.616500	1.453211
1.617000	1.455440
1.617500	1.458944
1.618000	1.455759
1.618500	1.453848
1.619000	1.454485
1.619500	1.457989
1.620000	1.456714
1.620500	1.455440
1.621000	1.454803
1.621500	1.455759
1.622000	1.456077
1.622500	1.456714
1.623000	1.456077
1.623500	1.455122
1.624000	1.456077
1.624500	1.456714
1.625000	1.457352
1.625500	1.455759
1.626000	1.454166
1.626500	1.456077
1.627000	1.457670
1.627500	1.455759
1.628000	1.453848
1.628500	1.455122
1.629000	1.458944
1.629500	1.456396
1.630000	1.452892
1.630500	1.454803
1.631000	1.458307
1.631500	1.457033
1.632000	1.454166
1.632500	1.454803
1.633000	1.456714
1.633500	1.456714
1.634000	1.455440
1.634500	1.455759
1.635000	1.455122
1.635500	1.455759
1.636000	1.456077
1.636500	1.455759
1.637000	1.455440
1.637500	1.456396
1.638000	1.456396
1.638500	1.456077
1.639000	1.456077
1.639500	1.454166
1.640000	1.456396
1.640500	1.457352
1.641000	1.456396
1.641500	1.453848
1.642000	1.455440
1.642500	1.458626
1.643000	1.456396
1.643500	1.452892
1.644000	1.454803
1.644500	1.459263
1.645000	1.457352
1.645500	1.453211
1.646000	1.455122
1.646500	1.457989
1.647000	1.457033
1.647500	1.455122
1.648000	1.454166
1.648500	1.456714
1.649000	1.456396
1.649500	1.456077
1.650000	1.455440
1.650500	1.455122
1.651000	1.456396
1.651500	1.456714
1.652000	1.456714
1.652500	1.454166
1.653000	1.455440
1.653500	1.456714
1.654000	1.457670
1.654500	1.455759
1.655000	1.453848
1.655500	1.455759
1.656000	1.458944
1.656500	1.457352
1.657000	1.453211
1.657500	1.455440
1.658000	1.459581
1.658500	1.457352
1.659000	1.453529
1.659500	1.454485
1.660000	1.458307
1.660500	1.457352
1.661000	1.455122
1.661500	1.455122
1.662000	1.456714
1.662500	1.456396
1.663000	1.457033
1.663500	1.456077
1.664000	1.456077
1.664500	1.455759
1.665000	1.456396
1.665500	1.457989
1.666000	1.454803
1.666500	1.454803
1.667000	1.456077
1.667500	1.457670
1.668000	1.456077
1.668500	1.454485
1.669000	1.455122
1.669500	1.458307
1.670000	1.456714
1.670500	1.453211
1.671000	1.454166
1.671500	1.458307
1.672000	1.456077
1.672500	1.452573
1.673000	1.453848
1.673500	1.457989
1.674000	1.456077
1.674500	1.454485
1.675000	1.454803
1.675500	1.456077
1.676000	1.455440
1.676500	1.456077
1.677000	1.455122
1.677500	1.455122
1.678000	1.455440
1.678500	1.456714
1.679000	1.456077
1.679500	1.454485
1.680000	1.454803
1.680500	1.455759
1.681000	1.457033
1.681500	1.455440
1.682000	1.453211
1.682500	1.454803
1.683000	1.457989
1.683500	1.456077
1.684000	1.452573
1.684500	1.454485
1.685000	1.458626
1.685500	1.456396
1.686000	1.452573
1.686500	1.454485
1.687000	1.456714
1.687500	1.456396
1.688000	1.453529
1.688500	1.455440
1.689000	1.456077
1.689500	1.456396
1.690000	1.455759
1.690500	1.455122
1.691000	1.455122
1.691500	1.455759
1.692000	1.457670
1.692500	1.456714
1.693000	1.454485
1.693500	1.456077
1.694000	1.456077
1.694500	1.456396
1.695000	1.455440
1.695500	1.454803
1.696000	1.455440
1.696500	1.458307
1.697000	1.456077
1.697500	1.453529
1.698000	1.454803
1.698500	1.458626
1.699000	1.455759
1.699500	1.452255
1.700000	1.454803
1.700500	1.458307
1.701000	1.457352
1.701500	1.453529
1.702000	1.454166
1.702500	1.456714
1.703000	1.457352
1.703500	1.454166
1.704000	1.455440
1.704500	1.455440
1.705000	1.455759
1.705500	1.455440
1.706000	1.455759
1.706500	1.455122
1.707000	1.454803
1.707500	1.455759
1.708000	1.456077
1.708500	1.455759
1.709000	1.454803
1.709500	1.455759
1.710000	1.457352
1.710500	1.454485
1.711000	1.452892
1.711500	1.454803
1.712000	1.458944
1.712500	1.455759
1.713000	1.452892
1.713500	1.454803
1.714000	1.458307
1.714500	1.456714
1.715000	1.453211
1.715500	1.454485
1.716000	1.456714
1.716500	1.455759
1.717000	1.455759
1.717500	1.455122
1.718000	1.456077
1.718500	1.456714
1.719000	1.457033
1.719500	1.455122
1.720000	1.455759
1.720500	1.455759
1.721000	1.456396
1.721500	1.456714
1.722000	1.455122
1.722500	1.455440
1.723000	1.455759
1.723500	1.457352
1.724000	1.456396
1.724500	1.453211
1.725000	1.455759
1.725500	1.457989
1.726000	1.455759
1.726500	1.452573
1.727000	1.455440
1.727500	1.459263
1.728000	1.456714
1.728500	1.452573
1.729000	1.454485
1.729500	1.457352
1.730000	1.456714
1.730500	1.454166
1.731000	1.454803
1.731500	1.456396
1.732000	1.456714
1.732500	1.455440
1.733000	1.455759
1.733500	1.455440
1.734000	1.456714
1.734500	1.456714
1.735000	1.456077
1.735500	1.455122
1.736000	1.455122
1.736500	1.457033
1.737000	1.457670
1.737500	1.454803
1.738000	1.453848
1.738500	1.455122
1.739000	1.457989
1.739500	1.455440
1.740000	1.452892
1.740500	1.454803
1.741000	1.458944
1.741500	1.456714
1.742000	1.453211
1.742500	1.454485
1.743000	1.457989
1.743500	1.456714
1.744000	1.453529
1.744500	1.454485
1.745000	1.456714
1.745500	1.456396
1.746000	1.455759
1.746500	1.455759
1.747000	1.455122
1.747500	1.455122
1.748000	1.456396
1.748500	1.455759
1.749000	1.455440
1.749500	1.455440
1.750000	1.455759
1.750500	1.457352
1.751000	1.456714
1.751500	1.453529
1.752000	1.455759
1.752500	1.458944
1.753000	1.456396
1.753500	1.453211
1.754000	1.455122
1.754500	1.458307
1.755000	1.456396
1.755500	1.453529
1.756000	1.454485
1.756500	1.457352
1.757000	1.456714
1.757500	1.454485
1.758000	1.454803
1.758500	1.456714
1.759000	1.456077
1.759500	1.455759
1.760000	1.455440
1.760500	1.453848
1.761000	1.456077
1.761500	1.456077
1.762000	1.455440
1.762500	1.455440
1.763000	1.455440
1.763500	1.455759
1.764000	1.457033
1.764500	1.455759
1.765000	1.453848
1.765500	1.455440
1.766000	1.458307
1.766500	1.456396
1.767000	1.452892
1.767500	1.454803
1.768000	1.458626
1.768500	1.455759
1.769000	1.452573
1.769500	1.454803
1.770000	1.458307
1.770500	1.456714
1.771000	1.453529
1.771500	1.454803
1.772000	1.457352
1.772500	1.456714
1.773000	1.455440
1.773500	1.454485
1.774000	1.455122
1.774500	1.456077
1.775000	1.456714
1.775500	1.455440
1.776000	1.454166
1.776500	1.455759
1.777000	1.456077
1.777500	1.456077
1.778000	1.455759
1.778500	1.454166
1.779000	1.455440
1.779500	1.457352
1.780000	1.455122
1.780500	1.453848
1.781000	1.454803
1.781500	1.458626
1.782000	1.456714
1.782500	1.452573
1.783000	1.454166
1.783500	1.457989
1.784000	1.457352
1.784500	1.453529
1.785000	1.454803
1.785500	1.456714
1.786000	1.455759
1.786500	1.453848
1.787000	1.454485
1.787500	1.456396
1.788000	1.455759
1.788500	1.455440
1.789000	1.454803
1.789500	1.455440
1.790000	1.454803
1.790500	1.456077
1.791000	1.455122
1.791500	1.454166
1.792000	1.454485
1.792500	1.456077
1.793000	1.456396
1.793500	1.454803
1.794000	1.452573
1.794500	1.455122
1.795000	1.458626
1.795500	1.456077
1.796000	1.452255
1.796500	1.454166
1.797000	1.457989
1.797500	1.456714
1.798000	1.452892
1.798500	1.454166
1.799000	1.457670
1.799500	1.456077
1.800000	1.454485
1.800500	1.455122
1.801000	1.456077
1.801500	1.456077
1.802000	1.455440
1.802500	1.455759
1.803000	1.455122
1.803500	1.455759
1.804000	1.456714
1.804500	1.455122
1.805000	1.455759
1.805500	1.454485
1.806000	1.456077
1.806500	1.456714
1.807000	1.455440
1.807500	1.453848
1.808000	1.455122
1.808500	1.458307
1.809000	1.456077
1.809500	1.453211
1.810000	1.454166
1.810500	1.458944
1.811000	1.456396
1.811500	1.452573
1.812000	1.454485
1.812500	1.457033
1.813000	1.456714
1.813500	1.454485
1.814000	1.455122
1.814500	1.455440
1.815000	1.456714
1.815500	1.455759
1.816000	1.454803
1.816500	1.454485
1.817000	1.456077
1.817500	1.456077
1.818000	1.456396
1.818500	1.454803
1.819000	1.454803
1.819500	1.455440
1.820000	1.457352
1.820500	1.454485
1.821000	1.453848
1.821500	1.454803
1.822000	1.458307
1.822500	1.456077
1.823000	1.451618
1.823500	1.454485
1.824000	1.458626
1.824500	1.456396
1.825000	1.452255
1.825500	1.454803
1.826000	1.457352
1.826500	1.456396
1.827000	1.454166
1.827500	1.453848
1.828000	1.455759
1.828500	1.456396
1.829000	1.455759
1.829500	1.455759
1.830000	1.455759
1.830500	1.456077
1.831000	1.456714
1.831500	1.455440
1.832000	1.454485
1.832500	1.455440
1.833000	1.456396
1.833500	1.456714
1.834000	1.455759
1.834500	1.454166
1.835000	1.456396
1.835500	1.457989
1.836000	1.455759
1.836500	1.452573
1.837000	1.454166
1.837500	1.457989
1.838000	1.456714
1.838500	1.452892
1.839000	1.454166
1.839500	1.456714
1.840000	1.456077
1.840500	1.453848
1.841000	1.454166
1.841500	1.455122
1.842000	1.455759
1.842500	1.455440
1.843000	1.455440
1.843500	1.454485
1.844000	1.454485
1.844500	1.455759
1.845000	1.456396
1.845500	1.454803
1.846000	1.455122
1.846500	1.456714
1.847000	1.456714
1.847500	1.455759
1.848000	1.453211
1.848500	1.455122
1.849000	1.458626
1.849500	1.457352
1.850000	1.452573
1.850500	1.454803
1.851000	1.457989
1.851500	1.456396
1.852000	1.453211
1.852500	1.454485
1.853000	1.457989
1.853500	1.456396
1.854000	1.454485
1.854500	1.455759
1.855000	1.457033
1.855500	1.456077
1.856000	1.456077
1.856500	1.455122
1.857000	1.455122
1.857500	1.455122
1.858000	1.455440
1.858500	1.456396
1.859000	1.454803
1.859500	1.454803
1.860000	1.456077
1.860500	1.457352
1.861000	1.455759
1.861500	1.453211
1.862000	1.456077
1.862500	1.458626
1.863000	1.456077
1.863500	1.452892
1.864000	1.454166
1.864500	1.458307
1.865000	1.457033
1.865500	1.453529
1.866000	1.454485
1.866500	1.456714
1.867000	1.456396
1.867500	1.455122
1.868000	1.454166
1.868500	1.455122
1.869000	1.456396
1.869500	1.455759
1.870000	1.455440
1.870500	1.455759
1.871000	1.455122
1.871500	1.456077
1.872000	1.455759
1.872500	1.455122
1.873000	1.453848
1.873500	1.455122
1.874000	1.457670
1.874500	1.456396
1.875000	1.453211
1.875500	1.454803
1.876000	1.458626
1.876500	1.456714
1.877000	1.452892
1.877500	1.455440
1.878000	1.458944
1.878500	1.457033
1.879000	1.453529
1.879500	1.455440
1.880000	1.456714
1.880500	1.457352
1.881000	1.454485
1.881500	1.455440
1.882000	1.454803
1.882500	1.455759
1.883000	1.456396
1.883500	1.455122
1.884000	1.454166
1.884500	1.454803
1.885000	1.456714
1.885500	1.456396
1.886000	1.454803
1.886500	1.454166
1.887000	1.454803
1.887500	1.457033
1.888000	1.456077
1.888500	1.452573
1.889000	1.454166
1.889500	1.458307
1.890000	1.455759
1.890500	1.452255
1.891000	1.454166
1.891500	1.457352
1.892000	1.456396
1.892500	1.454485
1.893000	1.454166
1.893500	1.457033
1.894000	1.456077
1.894500	1.455440
1.895000	1.454485
1.895500	1.456077
1.896000	1.456396
1.896500	1.456077
1.897000	1.455440
1.897500	1.454803
1.898000	1.455759
1.898500	1.456714
1.899000	1.456396
1.899500	1.455440
1.900000	1.454485
1.900500	1.456077
1.901000	1.458307
1.901500	1.457033
1.902000	1.453529
1.902500	1.455440
1.903000	1.459581
1.903500	1.456714
1.904000	1.452892
1.904500	1.455759
1.905000	1.458626
1.905500	1.457033
1.906000	1.454166
1.906500	1.454166
1.907000	1.457352
1.907500	1.457033
1.908000	1.454485
1.908500	1.455122
1.909000	1.455122
1.909500	1.454803
1.910000	1.456714
1.910500	1.455122
1.911000	1.455122
1.911500	1.455759
1.912000	1.456714
1.912500	1.457352
1.913000	1.455440
1.913500	1.455122
1.914000	1.456396
1.914500	1.458307
1.915000	1.455759
1.915500	1.453848
1.916000	1.456396
1.916500	1.458307
1.917000	1.456714
1.917500	1.452892
1.918000	1.455122
1.918500	1.459263
1.919000	1.457352
1.919500	1.454166
1.920000	1.454166
1.920500	1.456396
1.921000	1.456396
1.921500	1.455122
1.922000	1.454803
1.922500	1.455440
1.923000	1.456714
1.923500	1.456077
1.924000	1.455759
1.924500	1.455122
1.925000	1.454485
1.925500	1.457033
1.926000	1.457352
1.926500	1.455440
1.927000	1.454485
1.927500	1.455440
1.928000	1.458307
1.928500	1.457033
1.929000	1.453211
1.929500	1.455122
1.930000	1.459900
1.930500	1.456396
1.931000	1.451936
1.931500	1.453848
1.932000	1.457989
1.932500	1.456714
1.933000	1.454803
1.933500	1.455122
1.934000	1.455759
1.934500	1.456077
1.935000	1.455759
1.935500	1.455122
1.936000	1.454803
1.936500	1.455759
1.937000	1.457352
1.937500	1.455440
1.938000	1.454803
1.938500	1.455122
1.939000	1.456396
1.939500	1.457033
1.940000	1.454803
1.940500	1.454485
1.941000	1.455122
1.941500	1.458944
1.942000	1.456396
1.942500	1.453211
1.943000	1.454803
1.943500	1.458626
1.944000	1.456396
1.944500	1.452573
1.945000	1.454485
1.945500	1.459263
1.946000	1.456396
1.946500	1.454166
1.947000	1.455122
1.947500	1.457033
1.948000	1.455440
1.948500	1.455759
1.949000	1.454803
1.949500	1.455440
1.950000	1.455759
1.950500	1.456396
1.951000	1.456396
1.951500	1.455122
1.952000	1.455759
1.952500	1.456396
1.953000	1.456077
1.953500	1.455440
1.954000	1.454485
1.954500	1.455440
1.955000	1.458307
1.955500	1.455759
1.956000	1.453848
1.956500	1.454803
1.957000	1.458307
1.957500	1.456714
1.958000	1.453529
1.958500	1.454166
1.959000	1.457670
1.959500	1.456396
1.960000	1.454166
1.960500	1.454485
1.961000	1.456396
1.961500	1.456077
1.962000	1.455759
1.962500	1.455759
1.963000	1.455122
1.963500	1.457033
1.964000	1.457670
1.964500	1.456396
1.965000	1.455122
1.965500	1.456396
1.966000	1.457033
1.966500	1.457033
1.967000	1.455122
1.967500	1.454485
1.968000	1.456396
1.968500	1.457352
1.969000	1.456396
1.969500	1.452892
1.970000	1.456077
1.970500	1.458307
1.971000	1.456396
1.971500	1.453211
1.972000	1.454803
1.972500	1.458307
1.973000	1.457033
1.973500	1.454166
1.974000	1.454803
1.974500	1.456714
1.975000	1.457352
1.975500	1.455759
1.976000	1.455440
1.976500	1.455759
1.977000	1.456396
1.977500	1.457352
1.978000	1.456077
1.978500	1.455759
1.979000	1.454803
1.979500	1.456077
1.980000	1.456714
1.980500	1.456077
1.981000	1.454166
1.981500	1.456396
1.982000	1.458307
1.982500	1.455440
1.983000	1.453529
1.983500	1.454803
1.984000	1.458944
1.984500	1.456714
1.985000	1.453211
1.985500	1.453848
1.986000	1.457989
1.986500	1.457033
1.987000	1.453529
1.987500	1.454166
1.988000	1.457352
1.988500	1.457033
1.989000	1.455122
1.989500	1.454803
1.990000	1.456077
1.990500	1.455759
1.991000	1.455759
1.991500	1.455759
1.992000	1.454803
1.992500	1.455440
1.993000	1.456714
1.993500	1.457352
1.994000	1.456077
1.994500	1.454166
1.995000	1.455759
1.995500	1.458626
1.996000	1.456714
1.996500	1.452892
1.997000	1.454485
1.997500	1.458626
1.998000	1.456714
1.998500	1.452892
1.999000	1.454803
1.999500	1.458626
2.000000	1.457989
2.000500	1.454166
2.001000	1.456077
2.001500	1.457352
2.002000	1.456714
2.002500	1.455122
2.003000	1.455440
2.003500	1.455759
2.004000	1.457033
2.004500	1.457352
2.005000	1.456077
2.005500	1.454803
2.006000	1.455440
2.006500	1.456714
2.007000	1.456077
2.007500	1.455759
2.008000	1.455122
2.008500	1.455759
2.009000	1.457989
2.009500	1.456077
2.010000	1.452892
2.010500	1.455440
2.011000	1.459263
2.011500	1.456396
2.012000	1.454166
2.012500	1.454485
2.013000	1.458626
2.013500	1.457670
2.014000	1.454166
2.014500	1.455440
2.015000	1.457989
2.015500	1.456714
2.016000	1.455122
2.016500	1.455440
2.017000	1.455759
2.017500	1.456714
2.018000	1.455759
2.018500	1.455759
2.019000	1.455759
2.019500	1.456714
2.020000	1.456396
2.020500	1.457670
2.021000	1.456396
2.021500	1.454803
2.022000	1.456714
2.022500	1.458626
2.023000	1.457352
2.023500	1.454803
2.024000	1.455440
2.024500	1.458944
2.025000	1.457352
2.025500	1.452573
2.026000	1.455759
2.026500	1.458307
2.027000	1.457033
2.027500	1.453848
2.028000	1.455122
2.028500	1.457352
2.029000	1.457352
2.029500	1.456077
2.030000	1.456077
2.030500	1.456077
2.031000	1.456396
2.031500	1.456714
2.032000	1.455759
2.032500	1.455440
2.033000	1.455759
2.033500	1.457670
2.034000	1.457352
2.034500	1.456077
2.035000	1.454803
2.035500	1.456714
2.036000	1.457670
2.036500	1.456077
2.037000	1.454166
2.037500	1.455440
2.038000	1.458307
2.038500	1.456714
2.039000	1.453211
2.039500	1.454485
2.040000	1.458626
2.040500	1.456396
2.041000	1.453529
2.041500	1.454485
2.042000	1.457352
2.042500	1.457033
2.043000	1.454803
2.043500	1.455440
2.044000	1.456077
2.044500	1.456714
2.045000	1.456077
2.045500	1.457670
2.046000	1.454803
2.046500	1.455440
2.047000	1.456714
2.047500	1.456714
2.048000	1.455759
2.048500	1.455122
2.049000	1.456396
2.049500	1.458944
2.050000	1.456714
2.050500	1.452892
2.051000	1.455440
2.051500	1.459900
2.052000	1.457670
2.052500	1.453211
2.053000	1.455122
2.053500	1.457989
2.054000	1.457352
2.054500	1.455122
2.055000	1.455440
2.055500	1.457989
2.056000	1.457670
2.056500	1.455440
2.057000	1.456077
2.057500	1.456077
2.058000	1.456714
2.058500	1.457670
2.059000	1.456077
2.059500	1.456077
2.060000	1.456077
2.060500	1.457670
2.061000	1.457352
2.061500	1.456714
2.062000	1.454485
2.062500	1.456714
2.063000	1.458307
2.063500	1.456714
2.064000	1.453529
2.064500	1.456077
2.065000	1.459581
2.065500	1.457033
2.066000	1.453529
2.066500	1.455759
2.067000	1.459263
2.067500	1.457989
2.068000	1.455122
2.068500	1.456396
2.069000	1.457670
2.069500	1.457989
2.070000	1.456396
2.070500	1.456077
2.071000	1.455759
2.071500	1.457352
2.072000	1.457033
2.072500	1.456077
2.073000	1.455122
2.073500	1.455759
2.074000	1.456714
2.074500	1.457670
2.075000	1.457352
2.075500	1.455440
2.076000	1.456396
2.076500	1.458944
2.077000	1.456396
2.077500	1.454803
2.078000	1.456396
2.078500	1.459581
2.079000	1.457670
2.079500	1.453529
2.080000	1.455122
2.080500	1.458626
2.081000	1.457670
2.081500	1.455440
2.082000	1.455440
2.082500	1.456396
2.083000	1.457033
2.083500	1.456714
2.084000	1.455759
2.084500	1.455759
2.085000	1.456714
2.085500	1.457033
2.086000	1.456396
2.086500	1.455122
2.087000	1.454485
2.087500	1.456396
2.088000	1.457670
2.088500	1.455122
2.089000	1.453848
2.089500	1.455440
2.090000	1.458307
2.090500	1.455759
2.091000	1.453211
2.091500	1.454485
2.092000	1.459263
2.092500	1.456714
2.093000	1.453211
2.093500	1.455122
2.094000	1.457989
2.094500	1.456396
2.095000	1.455440
2.095500	1.454166
2.096000	1.456396
2.096500	1.456714
2.097000	1.456077
2.097500	1.455122
2.098000	1.454803
2.098500	1.456077
2.099000	1.457033
2.099500	1.456077
2.100000	1.455440
2.100500	1.454803
2.101000	1.455759
2.101500	1.457033
2.102000	1.456077
2.102500	1.453529
2.103000	1.455122
2.103500	1.458626
2.104000	1.456077
2.104500	1.453529
2.105000	1.456396
2.105500	1.459900
2.106000	1.457670
2.106500	1.453848
2.107000	1.454803
2.107500	1.459581
2.108000	1.457989
2.108500	1.455440
2.109000	1.455759
2.109500	1.457352
2.110000	1.456396
2.110500	1.457033
2.111000	1.456077
2.111500	1.456077
2.112000	1.457033
2.112500	1.457033
2.113000	1.457352
2.113500	1.455440
2.114000	1.454803
2.114500	1.456396
2.115000	1.458307
2.115500	1.456077
2.116000	1.452892
2.116500	1.455759
2.117000	1.458944
2.117500	1.456396
2.118000	1.452892
2.118500	1.455759
2.119000	1.459263
2.119500	1.457033
2.120000	1.453529
2.120500	1.455440
2.121000	1.457670
2.121500	1.456714
2.122000	1.455122
2.122500	1.455440
2.123000	1.456714
2.123500	1.456714
2.124000	1.456077
2.124500	1.455440
2.125000	1.455440
2.125500	1.456714
2.126000	1.457352
2.126500	1.457352
2.127000	1.455440
2.127500	1.455122
2.128000	1.457352
2.128500	1.457033
2.129000	1.456077
2.129500	1.454166
2.130000	1.456396
2.130500	1.459263
2.131000	1.456077
2.131500	1.453848
2.132000	1.455759
2.132500	1.459263
2.133000	1.456714
2.133500	1.453529
2.134000	1.455122
2.134500	1.459263
2.135000	1.457352
2.135500	1.454485
2.136000	1.454485
2.136500	1.457033
2.137000	1.456714
2.137500	1.455440
2.138000	1.455440
2.138500	1.455759
2.139000	1.456396
2.139500	1.457033
2.140000	1.456077
2.140500	1.456077
2.141000	1.455122
2.141500	1.457352
2.142000	1.457033
2.142500	1.455759
2.143000	1.456077
2.143500	1.456714
2.144000	1.459263
2.144500	1.456714
2.145000	1.453848
2.145500	1.456077
2.146000	1.459581
2.146500	1.457033
2.147000	1.452892
2.147500	1.455759
2.148000	1.458307
2.148500	1.457670
2.149000	1.454166
2.149500	1.455759
2.150000	1.458307
2.150500	1.457670
2.151000	1.456714
2.151500	1.455759
2.152000	1.455759
2.152500	1.457033
2.153000	1.456714
2.153500	1.455759
2.154000	1.454803
2.154500	1.456077
2.155000	1.457352
2.155500	1.457033
2.156000	1.455440
2.156500	1.455440
2.157000	1.457352
2.157500	1.457670
2.158000	1.455759
2.158500	1.454166
2.159000	1.456396
2.159500	1.458307
2.160000	1.457033
2.160500	1.453529
2.161000	1.455440
2.161500	1.458944
2.162000	1.457352
2.162500	1.452892
2.163000	1.455122
2.163500	1.458626
2.164000	1.457352
2.164500	1.453848
2.165000	1.455440
2.165500	1.457670
2.166000	1.457352
2.166500	1.455440
2.167000	1.456396
2.167500	1.455759
2.168000	1.456077
2.168500	1.457033
2.169000	1.456396
2.169500	1.454485
2.170000	1.456077
2.170500	1.457352
2.171000	1.456714
2.171500	1.456077
2.172000	1.455122
2.172500	1.456396
2.173000	1.458626
2.173500	1.456396
2.174000	1.453848
2.174500	1.455440
2.175000	1.459581
2.175500	1.457670
2.176000	1.452892
2.176500	1.455759
2.177000	1.459900
2.177500	1.457670
2.178000	1.453848
2.178500	1.454803
2.179000	1.457989
2.179500	1.457989
2.180000	1.455122
2.180500	1.455440
2.181000	1.456396
2.181500	1.456714
2.182000	1.457352
2.182500	1.455122
2.183000	1.455440
2.183500	1.456714
2.184000	1.457033
2.184500	1.457033
2.185000	1.455440
2.185500	1.444291
2.186000	1.456714
2.186500	1.457033
2.187000	1.455122
2.187500	1.453848
2.188000	1.455440
2.188500	1.458626
2.189000	1.456714
2.189500	1.453211
2.190000	1.455759
2.190500	1.459263
2.191000	1.457670
2.191500	1.453211
2.192000	1.454803
2.192500	1.457670
2.193000	1.457033
2.193500	1.454803
2.194000	1.455122
2.194500	1.457033
2.195000	1.456396
2.195500	1.454803
2.196000	1.455759
2.196500	1.455122
2.197000	1.456077
2.197500	1.457352
2.198000	1.456396
2.198500	1.455440
2.199000	1.455440
2.199500	1.456714
2.200000	1.457352
2.200500	1.455440
2.201000	1.454803
2.201500	1.456077
2.202000	1.457989
2.202500	1.456714
2.203000	1.452892
2.203500	1.455440
2.204000	1.458944
2.204500	1.456714
2.205000	1.453211
2.205500	1.455759
2.206000	1.458944
2.206500	1.457352
2.207000	1.454166
2.207500	1.454803
2.208000	1.457352
2.208500	1.456714
2.209000	1.456077
2.209500	1.455440
2.210000	1.455759
2.210500	1.456714
2.211000	1.457670
2.211500	1.455122
2.212000	1.454485
2.212500	1.456077
2.213000	1.456396
2.213500	1.456396
2.214000	1.455759
2.214500	1.453848
2.215000	1.455440
2.215500	1.458307
2.216000	1.456077
2.216500	1.453529
2.217000	1.456077
2.217500	1.459900
2.218000	1.456714
2.218500	1.453848
2.219000	1.455759
2.219500	1.458307
2.220000	1.457670
2.220500	1.453848
2.221000	1.455122
2.221500	1.457670
2.222000	1.457352
2.222500	1.455122
2.223000	1.455759
2.223500	1.456396
2.224000	1.456396
2.224500	1.457033
2.225000	1.455440
2.225500	1.455759
2.226000	1.456077
2.226500	1.457033
2.227000	1.456396
2.227500	1.455122
2.228000	1.455122
2.228500	1.456714
2.229000	1.457670
2.229500	1.455759
2.230000	1.453848
2.230500	1.455759
2.231000	1.458626
2.231500	1.456714
2.232000	1.453211
2.232500	1.454803
2.233000	1.459263
2.233500	1.456714
2.234000	1.454166
2.234500	1.455440
2.235000	1.458626
2.235500	1.456714
2.236000	1.456077
2.236500	1.455759
2.237000	1.457033
2.237500	1.457352
2.238000	1.456714
2.238500	1.456396
2.239000	1.455440
2.239500	1.456077
2.240000	1.457033
2.240500	1.456714
2.241000	1.455440
2.241500	1.455122
2.242000	1.455759
2.242500	1.457670
2.243000	1.456396
2.243500	1.454166
2.244000	1.456714
2.244500	1.459263
2.245000	1.456714
2.245500	1.453848
2.246000	1.455759
2.246500	1.459900
2.247000	1.457352
2.247500	1.453848
2.248000	1.456077
2.248500	1.458944
2.249000	1.457989
2.249500	1.455440
2.250000	1.455759
2.250500	1.456077
2.251000	1.456714
2.251500	1.456714
2.252000	1.456396
2.252500	1.456077
2.253000	1.456396
2.253500	1.456714
2.254000	1.457033
2.254500	1.455440
2.255000	1.455759
2.255500	1.457352
2.256000	1.457989
2.256500	1.456396
2.257000	1.453848
2.257500	1.456396
2.258000	1.458944
2.258500	1.457033
2.259000	1.453848
2.259500	1.456077
2.260000	1.459263
2.260500	1.456714
2.261000	1.452573
2.261500	1.455122
2.262000	1.458307
2.262500	1.456714
2.263000	1.455122
2.263500	1.455122
2.264000	1.457033
2.264500	1.456714
2.265000	1.457033
2.265500	1.455440
2.266000	1.455122
2.266500	1.455759
2.267000	1.456396
2.267500	1.456714
2.268000	1.455440
2.268500	1.454803
2.269000	1.456077
2.269500	1.457670
2.270000	1.456396
2.270500	1.453211
2.271000	1.455759
2.271500	1.458944
2.272000	1.456714
2.272500	1.452892
2.273000	1.455440
2.273500	1.459263
2.274000	1.457352
2.274500	1.454803
2.275000	1.455122
2.275500	1.456714
2.276000	1.457670
2.276500	1.456077
2.277000	1.455440
2.277500	1.455759
2.278000	1.457033
2.278500	1.456714
2.279000	1.456077
2.279500	1.455122
2.280000	1.455759
2.280500	1.456714
2.281000	1.456714
2.281500	1.456396
2.282000	1.454485
2.282500	1.455759
2.283000	1.457989
2.283500	1.456077
2.284000	1.453848
2.284500	1.455759
2.285000	1.458944
2.285500	1.457352
2.286000	1.453211
2.286500	1.454485
2.287000	1.458307
2.287500	1.457033
2.288000	1.454166
2.288500	1.454166
2.289000	1.457352
2.289500	1.456396
2.290000	1.455759
2.290500	1.455440
2.291000	1.455759
2.291500	1.456077
2.292000	1.456714
2.292500	1.455759
2.293000	1.456077
2.293500	1.455122
2.294000	1.456077
2.294500	1.456714
2.295000	1.455122
2.295500	1.454485
2.296000	1.455440
2.296500	1.458626
2.297000	1.455759
2.297500	1.452892
2.298000	1.455440
2.298500	1.459263
2.299000	1.456077
2.299500	1.452892
2.300000	1.454166
2.300500	1.458307
2.301000	1.456714
2.301500	1.453848
2.302000	1.455122
2.302500	1.456714
2.303000	1.456396
2.303500	1.456396
2.304000	1.455440
2.304500	1.456396
2.305000	1.455440
2.305500	1.456714
2.306000	1.455759
2.306500	1.456077
2.307000	1.455440
2.307500	1.456714
2.308000	1.457033
2.308500	1.454803
2.309000	1.454166
2.309500	1.455759
2.310000	1.457989
2.310500	1.455440
2.311000	1.452892
2.311500	1.455122
2.312000	1.458307
2.312500	1.457352
2.313000	1.453848
2.313500	1.455440
2.314000	1.458944
2.314500	1.457352
2.315000	1.455440
2.315500	1.455122
2.316000	1.457989
2.316500	1.456714
2.317000	1.457033
2.317500	1.456714
2.318000	1.456077
2.318500	1.455759
2.319000	1.457352
2.319500	1.456077
2.320000	1.455759
2.320500	1.455122
2.321000	1.456396
2.321500	1.456714
2.322000	1.455440
2.322500	1.453848
2.323000	1.455759
2.323500	1.457352
2.324000	1.457033
2.324500	1.452892
2.325000	1.455122
2.325500	1.458626
2.326000	1.457033
2.326500	1.452892
2.327000	1.454803
2.327500	1.457989
2.328000	1.457352
2.328500	1.454803
2.329000	1.454803
2.329500	1.457352
2.330000	1.456396
2.330500	1.454803
2.331000	1.454803
2.331500	1.455759
2.332000	1.456077
2.332500	1.455440
2.333000	1.455440
2.333500	1.454803
2.334000	1.455759
2.334500	1.456077
2.335000	1.456396
2.335500	1.455122
2.336000	1.453529
2.336500	1.456077
2.337000	1.457033
2.337500	1.455440
2.338000	1.453211
2.338500	1.456077
2.339000	1.458307
2.339500	1.456396
2.340000	1.451936
2.340500	1.455440
2.341000	1.458626
2.341500	1.457033
2.342000	1.453529
2.342500	1.454803
2.343000	1.457670
2.343500	1.455759
2.344000	1.455122
2.344500	1.454803
2.345000	1.456077
2.345500	1.456077
2.346000	1.456396
2.346500	1.455440
2.347000	1.455122
2.347500	1.455759
2.348000	1.457352
2.348500	1.456396
2.349000	1.454485
2.349500	1.454485
2.350000	1.456077
2.350500	1.456714
2.351000	1.455122
2.351500	1.452255
2.352000	1.456396
2.352500	1.457670
2.353000	1.456077
2.353500	1.452892
2.354000	1.454485
2.354500	1.458626
2.355000	1.456714
2.355500	1.452573
2.356000	1.453529
2.356500	1.458626
2.357000	1.456714
2.357500	1.454485
2.358000	1.454166
2.358500	1.456077
2.359000	1.455759
2.359500	1.455440
2.360000	1.454803
2.360500	1.454803
2.361000	1.455759
2.361500	1.456077
2.362000	1.455440
2.362500	1.455440
2.363000	1.455759
2.363500	1.455759
2.364000	1.456396
2.364500	1.455122
2.365000	1.453848
2.365500	1.455440
2.366000	1.457670
2.366500	1.456714
2.367000	1.452892
2.367500	1.454803
2.368000	1.458626
2.368500	1.455759
2.369000	1.452892
2.369500	1.454485
2.370000	1.457352
2.370500	1.456077
2.371000	1.453848
2.371500	1.454803
2.372000	1.456714
2.372500	1.456714
2.373000	1.454485
2.373500	1.454485
2.374000	1.455440
2.374500	1.456396
2.375000	1.456714
2.375500	1.455440
2.376000	1.453848
2.376500	1.455440
2.377000	1.455440
2.377500	1.456077
2.378000	1.455122
2.378500	1.453211
2.379000	1.455440
2.379500	1.457352
2.380000	1.455759
2.380500	1.453529
2.381000	1.455122
2.381500	1.458626
2.382000	1.456396
2.382500	1.452573
2.383000	1.454166
2.383500	1.458626
2.384000	1.456396
2.384500	1.452573
2.385000	1.454166
2.385500	1.457033
2.386000	1.456714
2.386500	1.454803
2.387000	1.454166
2.387500	1.455122
2.388000	1.456396
2.388500	1.455759
2.389000	1.455122
2.389500	1.455122
2.390000	1.455440
2.390500	1.456396
2.391000	1.456077
2.391500	1.454803
2.392000	1.454485
2.392500	1.456077
2.393000	1.457352
2.393500	1.456077
2.394000	1.452573
2.394500	1.455440
2.395000	1.458626
2.395500	1.456714
2.396000	1.452573
2.396500	1.454166
2.397000	1.458307
2.397500	1.456396
2.398000	1.452573
2.398500	1.454803
2.399000	1.457670
2.399500	1.456077
2.400000	1.454803
2.400500	1.455759
2.401000	1.456396
2.401500	1.455759
2.402000	1.456077
2.402500	1.454803
2.403000	1.454485
2.403500	1.455122
2.404000	1.456396
2.404500	1.455440
2.405000	1.454803
2.405500	1.454803
2.406000	1.456077
2.406500	1.457352
2.407000	1.455759
2.407500	1.453848
2.408000	1.455440
2.408500	1.458307
2.409000	1.456077
2.409500	1.452573
2.410000	1.454803
2.410500	1.458307
2.411000	1.457033
2.411500	1.453211
2.412000	1.455122
2.412500	1.457352
2.413000	1.457033
2.413500	1.454803
2.414000	1.454166
2.414500	1.456396
2.415000	1.455759
2.415500	1.455759
2.416000	1.455440
2.416500	1.454803
2.417000	1.456396
2.417500	1.457352
2.418000	1.455122
2.418500	1.454803
2.419000	1.454166
2.419500	1.456077
2.420000	1.456077
2.420500	1.455122
2.421000	1.454166
2.421500	1.455122
2.422000	1.458307
2.422500	1.455122
2.423000	1.452892
2.423500	1.455122
2.424000	1.458307
2.424500	1.456714
2.425000	1.453211
2.425500	1.455122
2.426000	1.458944
2.426500	1.456396
2.427000	1.453529
2.427500	1.454803
2.428000	1.456714
2.428500	1.456396
2.429000	1.454166
2.429500	1.455122
2.430000	1.456077
2.430500	1.456396
2.431000	1.455440
2.431500	1.455122
2.432000	1.454803
2.432500	1.455122
2.433000	1.456396
2.433500	1.455759
2.434000	1.455122
2.434500	1.454803
2.435000	1.456396
2.435500	1.457033
2.436000	1.455440
2.436500	1.453848
2.437000	1.455440
2.437500	1.458307
2.438000	1.456714
2.438500	1.452255
2.439000	1.455759
2.439500	1.458307
2.440000	1.457352
2.440500	1.453529
2.441000	1.454485
2.441500	1.457989
2.442000	1.456714
2.442500	1.453529
2.443000	1.454803
2.443500	1.457670
2.444000	1.456396
2.444500	1.455122
2.445000	1.455759
2.445500	1.455759
2.446000	1.456714
2.446500	1.456396
2.447000	1.455440
2.447500	1.454803
2.448000	1.455440
2.448500	1.455759
2.449000	1.456714
2.449500	1.455440
2.450000	1.454485
2.450500	1.455759
2.451000	1.456714
2.451500	1.455440
2.452000	1.453211
2.452500	1.455440
2.453000	1.458944
2.453500	1.456077
2.454000	1.453211
2.454500	1.455122
2.455000	1.459581
2.455500	1.456396
2.456000	1.454166
2.456500	1.455122
2.457000	1.457670
2.457500	1.457352
2.458000	1.455759
2.458500	1.455759
2.459000	1.456396
2.459500	1.456396
2.460000	1.456396
2.460500	1.455440
2.461000	1.455759
2.461500	1.455759
2.462000	1.457033
2.462500	1.456396
2.463000	1.455122
2.463500	1.455122
2.464000	1.456077
2.464500	1.457989
2.465000	1.456077
2.465500	1.453529
2.466000	1.455122
2.466500	1.459263
2.467000	1.457033
2.467500	1.453529
2.468000	1.455440
2.468500	1.458307
2.469000	1.457033
2.469500	1.453211
2.470000	1.455440
2.470500	1.457352
2.471000	1.456714
2.471500	1.454803
2.472000	1.455440
2.472500	1.456077
2.473000	1.456396
2.473500	1.456396
2.474000	1.454485
2.474500	1.455122
2.475000	1.454803
2.475500	1.456714
2.476000	1.455759
2.476500	1.455122
2.477000	1.454166
2.477500	1.456396
2.478000	1.457670
2.478500	1.455759
2.479000	1.453848
2.479500	1.455759
2.480000	1.458626
2.480500	1.456714
2.481000	1.453211
2.481500	1.455440
2.482000	1.458944
2.482500	1.457352
2.483000	1.453211
2.483500	1.455122
2.484000	1.457989
2.484500	1.457033
2.485000	1.454803
2.485500	1.454803
2.486000	1.455759
2.486500	1.457352
2.487000	1.455440
2.487500	1.454485
2.488000	1.455122
2.488500	1.455440
2.489000	1.456396
2.489500	1.455122
2.490000	1.454485
2.490500	1.455440
2.491000	1.456714
2.491500	1.456714
2.492000	1.456077
2.492500	1.454803
2.493000	1.455122
2.493500	1.457670
2.494000	1.455440
2.494500	1.453211
2.495000	1.455440
2.495500	1.458944
2.496000	1.455759
2.496500	1.452255
2.497000	1.454803
2.497500	1.458944
2.498000	1.456396
2.498500	1.453529
2.499000	1.455122
2.499500	1.457670
2.500000	1.457033
2.500500	1.454485
2.501000	1.454803
2.501500	1.456714
2.502000	1.456396
2.502500	1.457033
2.503000	1.455122
2.503500	1.455122
2.504000	1.455759
2.504500	1.456077
2.505000	1.456714
2.505500	1.455440
2.506000	1.453848
2.506500	1.456714
2.507000	1.457989
2.507500	1.455440
2.508000	1.453848
2.508500	1.455440
2.509000	1.459581
2.509500	1.457033
2.510000	1.452892
2.510500	1.455440
2.511000	1.458626
2.511500	1.457352
2.512000	1.453211
2.512500	1.455440
2.513000	1.457352
2.513500	1.457033
2.514000	1.455759
2.514500	1.455440
2.515000	1.455759
2.515500	1.456714
2.516000	1.457033
2.516500	1.456396
2.517000	1.455440
2.517500	1.455759
2.518000	1.456396
2.518500	1.455759
2.519000	1.454803
2.519500	1.454803
2.520000	1.455440
2.520500	1.457033
2.521000	1.455759
2.521500	1.453848
2.522000	1.455759
2.522500	1.458944
2.523000	1.455759
2.523500	1.452573
2.524000	1.454803
2.524500	1.458307
2.525000	1.456396
2.525500	1.453211
2.526000	1.454803
2.526500	1.457033
2.527000	1.457033
2.527500	1.454803
2.528000	1.455122
2.528500	1.457033
2.529000	1.456714
2.529500	1.455759
2.530000	1.455440
2.530500	1.455440
2.531000	1.456077
2.531500	1.457033
2.532000	1.456077
2.532500	1.455440
2.533000	1.455122
2.533500	1.456077
2.534000	1.457352
2.534500	1.456396
2.535000	1.454485
2.535500	1.456396
2.536000	1.458944
2.536500	1.456077
2.537000	1.453211
2.537500	1.455759
2.538000	1.458944
2.538500	1.457352
2.539000	1.453211
2.539500	1.454485
2.540000	1.458626
2.540500	1.457352
2.541000	1.454485
2.541500	1.454803
2.542000	1.456077
2.542500	1.456396
2.543000	1.455759
2.543500	1.455440
2.544000	1.456077
2.544500	1.456396
2.545000	1.456714
2.545500	1.455759
2.546000	1.455440
2.546500	1.455122
2.547000	1.456714
2.547500	1.457352
2.548000	1.455122
2.548500	1.453848
2.549000	1.455759
2.549500	1.459263
2.550000	1.456077
2.550500	1.452573
2.551000	1.454166
2.551500	1.459263
2.552000	1.456714
2.552500	1.452892
2.553000	1.455122
2.553500	1.457352
2.554000	1.456396
2.554500	1.454485
2.555000	1.454485
2.555500	1.455440
2.556000	1.456396
2.556500	1.455440
2.557000	1.455440
2.557500	1.454166
2.558000	1.456396
2.558500	1.456396
2.559000	1.455122
2.559500	1.455122
2.560000	1.456077
2.560500	1.455440
2.561000	1.457033
2.561500	1.455122
2.562000	1.453211
2.562500	1.455759
2.563000	1.458626
2.563500	1.456396
2.564000	1.453211
2.564500	1.455440
2.565000	1.459263
2.565500	1.457352
2.566000	1.453211
2.566500	1.454803
2.567000	1.458307
2.567500	1.456714
2.568000	1.454166
2.568500	1.455122
2.569000	1.456714
2.569500	1.457352
2.570000	1.455759
2.570500	1.454803
2.571000	1.455759
2.571500	1.456396
2.572000	1.456714
2.572500	1.455759
2.573000	1.455440
2.573500	1.455122
2.574000	1.456396
2.574500	1.457352
2.575000	1.456077
2.575500	1.454485
2.576000	1.455759
2.576500	1.458944
2.577000	1.456714
2.577500	1.453529
2.578000	1.454485
2.578500	1.458944
2.579000	1.457033
2.579500	1.452573
2.580000	1.454803
2.580500	1.457989
2.581000	1.456714
2.581500	1.454166
2.582000	1.454166
2.582500	1.457670
2.583000	1.457033
2.583500	1.454485
2.584000	1.454485
2.584500	1.455440
2.585000	1.454803
2.585500	1.456396
2.586000	1.455440
2.586500	1.456396
2.587000	1.456077
2.587500	1.456077
2.588000	1.456396
2.588500	1.455122
2.589000	1.454485
2.589500	1.456077
2.590000	1.457033
2.590500	1.456077
2.591000	1.453211
2.591500	1.455122
2.592000	1.458307
2.592500	1.455759
2.593000	1.453211
2.593500	1.454803
2.594000	1.459263
2.594500	1.456714
2.595000	1.453529
2.595500	1.455122
2.596000	1.457989
2.596500	1.456077
2.597000	1.454803
2.597500	1.454485
2.598000	1.456396
2.598500	1.456396
2.599000	1.456396
2.599500	1.455440
2.600000	1.454803
2.600500	1.456396
2.601000	1.457352
2.601500	1.455759
2.602000	1.455759
2.602500	1.455122
2.603000	1.456714
2.603500	1.457670
2.604000	1.456396
2.604500	1.453848
2.605000	1.455759
2.605500	1.459263
2.606000	1.456396
2.606500	1.452892
2.607000	1.454803
2.607500	1.458944
2.608000	1.456396
2.608500	1.452892
2.609000	1.455759
2.609500	1.458307
2.610000	1.457352
2.610500	1.454803
2.611000	1.454803
2.611500	1.456077
2.612000	1.456396
2.612500	1.456077
2.613000	1.455440
2.613500	1.454803
2.614000	1.456714
2.614500	1.456714
2.615000	1.455759
2.615500	1.455122
2.616000	1.455759
2.616500	1.455759
2.617000	1.457033
2.617500	1.455122
2.618000	1.454803
2.618500	1.455759
2.619000	1.458944
2.619500	1.456077
2.620000	1.453211
2.620500	1.455440
2.621000	1.458626
2.621500	1.456714
2.622000	1.453529
2.622500	1.455122
2.623000	1.458626
2.623500	1.457033
2.624000	1.454166
2.624500	1.454485
2.625000	1.457989
2.625500	1.457033
2.626000	1.456714
2.626500	1.456077
2.627000	1.455122
2.627500	1.457033
2.628000	1.457033
2.628500	1.455440
2.629000	1.455759
2.629500	1.455440
2.630000	1.457033
2.630500	1.456714
2.631000	1.455440
2.631500	1.455122
2.632000	1.455759
2.632500	1.457352
2.633000	1.455759
2.633500	1.453529
2.634000	1.455122
2.634500	1.458944
2.635000	1.456714
2.635500	1.453211
2.636000	1.454485
2.636500	1.458626
2.637000	1.457033
2.637500	1.453211
2.638000	1.454166
2.638500	1.458307
2.639000	1.456714
2.639500	1.455122
2.640000	1.454803
2.640500	1.456077
2.641000	1.456396
2.641500	1.455440
2.642000	1.455122
2.642500	1.455122
2.643000	1.456077
2.643500	1.456396
2.644000	1.455759
2.644500	1.455440
2.645000	1.455122
2.645500	1.456396
2.646000	1.456714
2.646500	1.455122
2.647000	1.454803
2.647500	1.456396
2.648000	1.457989
2.648500	1.456396
2.649000	1.453848
2.649500	1.455122
2.650000	1.459263
2.650500	1.457033
2.651000	1.453211
2.651500	1.454485
2.652000	1.458626
2.652500	1.457352
2.653000	1.453848
2.653500	1.454166
2.654000	1.457670
2.654500	1.456714
2.655000	1.455440
2.655500	1.456077
2.656000	1.456077
2.656500	1.456714
2.657000	1.456714
2.657500	1.455759
2.658000	1.455440
2.658500	1.456396
2.659000	1.456714
2.659500	1.456396
2.660000	1.455122
2.660500	1.455122
2.661000	1.456714
2.661500	1.457670
2.662000	1.456396
2.662500	1.453211
2.663000	1.456714
2.663500	1.458626
2.664000	1.455759
2.664500	1.453211
2.665000	1.455122
2.665500	1.458944
2.666000	1.456714
2.666500	1.453529
2.667000	1.455122
2.667500	1.457989
2.668000	1.456396
2.668500	1.453848
2.669000	1.454803
2.669500	1.456396
2.670000	1.455759
2.670500	1.455122
2.671000	1.455759
2.671500	1.455122
2.672000	1.456396
2.672500	1.456714
2.673000	1.456077
2.673500	1.455759
2.674000	1.455440
2.674500	1.456077
2.675000	1.456396
2.675500	1.455440
2.676000	1.454166
2.676500	1.456714
2.677000	1.457352
2.677500	1.456077
2.678000	1.452892
2.678500	1.456396
2.679000	1.459263
2.679500	1.456714
2.680000	1.453211
2.680500	1.455759
2.681000	1.458944
2.681500	1.457352
2.682000	1.453848
2.682500	1.454803
2.683000	1.457670
2.683500	1.457033
2.684000	1.456077
2.684500	1.456396
2.685000	1.455759
2.685500	1.456714
2.686000	1.457033
2.686500	1.456714
2.687000	1.455440
2.687500	1.456714
2.688000	1.457033
2.688500	1.456396
2.689000	1.455122
2.689500	1.455759
2.690000	1.455440
2.690500	1.458307
2.691000	1.456077
2.691500	1.453848
2.692000	1.455440
2.692500	1.458944
2.693000	1.456714
2.693500	1.452892
2.694000	1.454803
2.694500	1.458307
2.695000	1.457352
2.695500	1.453211
2.696000	1.455122
2.696500	1.457352
2.697000	1.457670
2.697500	1.455122
2.698000	1.455122
2.698500	1.456396
2.699000	1.456714
2.699500	1.456714
2.700000	1.455759
2.700500	1.455122
2.701000	1.456077
2.701500	1.456714
2.702000	1.456714
2.702500	1.455440
2.703000	1.454803
2.703500	1.456714
2.704000	1.457670
2.704500	1.455440
2.705000	1.454166
2.705500	1.456396
2.706000	1.458307
2.706500	1.457352
2.707000	1.452892
2.707500	1.454803
2.708000	1.458626
2.708500	1.456714
2.709000	1.453529
2.709500	1.455122
2.710000	1.457670
2.710500	1.457352
2.711000	1.453848
2.711500	1.454485
2.712000	1.455759
2.712500	1.457033
2.713000	1.455759
2.713500	1.455759
2.714000	1.455440
2.714500	1.456077
2.715000	1.456714
2.715500	1.455440
2.716000	1.455122
2.716500	1.455759
2.717000	1.457033
2.717500	1.456714
2.718000	1.455759
2.718500	1.453848
2.719000	1.455440
2.719500	1.457670
2.720000	1.455759
2.720500	1.452892
2.721000	1.454485
2.721500	1.458626
2.722000	1.456714
2.722500	1.452892
2.723000	1.454166
2.723500	1.457670
2.724000	1.457033
2.724500	1.453848
2.725000	1.454803
2.725500	1.456714
2.726000	1.456396
2.726500	1.454803
2.727000	1.454485
2.727500	1.456077
2.728000	1.456077
2.728500	1.456077
2.729000	1.455122
2.729500	1.455440
2.730000	1.455122
2.730500	1.456714
2.731000	1.456714
2.731500	1.454803
2.732000	1.455440
2.732500	1.456396
2.733000	1.457352
2.733500	1.455440
2.734000	1.453848
2.734500	1.455440
2.735000	1.458626
2.735500	1.456714
2.736000	1.452573
2.736500	1.455122
2.737000	1.458626
2.737500	1.456077
2.738000	1.453529
2.738500	1.454166
2.739000	1.457670
2.739500	1.457033
2.740000	1.454485
2.740500	1.454803
2.741000	1.456077
2.741500	1.456396
2.742000	1.455759
2.742500	1.454485
2.743000	1.455759
2.743500	1.455759
2.744000	1.456714
2.744500	1.455122
2.745000	1.455122
2.745500	1.455122
2.746000	1.456077
2.746500	1.457033
2.747000	1.455122
2.747500	1.454166
2.748000	1.455759
2.748500	1.456714
2.749000	1.456396
2.749500	1.452892
2.750000	1.455122
2.750500	1.458307
2.751000	1.456077
2.751500	1.452892
2.752000	1.454485
2.752500	1.458307
2.753000	1.456714
2.753500	1.454166
2.754000	1.455122
2.754500	1.456396
2.755000	1.456714
2.755500	1.455122
2.756000	1.455122
2.756500	1.455759
2.757000	1.455759
2.757500	1.455440
2.758000	1.456077
2.758500	1.455122
2.759000	1.455440
2.759500	1.456714
2.760000	1.455759
2.760500	1.455122
2.761000	1.455440
2.761500	1.456396
2.762000	1.457033
2.762500	1.455759
2.763000	1.454166
2.763500	1.455759
2.764000	1.457989
2.764500	1.456396
2.765000	1.452573
2.765500	1.456077
2.766000	1.458626
2.766500	1.457033
2.767000	1.452573
2.767500	1.455440
2.768000	1.458944
2.768500	1.457352
2.769000	1.454166
2.769500	1.454803
2.770000	1.457352
2.770500	1.457033
2.771000	1.455759
2.771500	1.456077
2.772000	1.456396
2.772500	1.456396
2.773000	1.457033
2.773500	1.456077
2.774000	1.456396
2.774500	1.455759
2.775000	1.455759
2.775500	1.456396
2.776000	1.455759
2.776500	1.454166
2.777000	1.456714
2.777500	1.457670
2.778000	1.455759
2.778500	1.453211
2.779000	1.455440
2.779500	1.459263
2.780000	1.456077
2.780500	1.452573
2.781000	1.454803
2.781500	1.458626
2.782000	1.457033
2.782500	1.453529
2.783000	1.454485
2.783500	1.457352
2.784000	1.457033
2.784500	1.455759
2.785000	1.454803
2.785500	1.456396
2.786000	1.456077
2.786500	1.455759
2.787000	1.455759
2.787500	1.455440
2.788000	1.455122
2.788500	1.456077
2.789000	1.455440
2.789500	1.454485
2.790000	1.455440
2.790500	1.456396
2.791000	1.456714
2.791500	1.455122
2.792000	1.453529
2.792500	1.455759
2.793000	1.457989
2.793500	1.455759
2.794000	1.452573
2.794500	1.454803
2.795000	1.458626
2.795500	1.456396
2.796000	1.452573
2.796500	1.455122
2.797000	1.457989
2.797500	1.457033
2.798000	1.454166
2.798500	1.455440
2.799000	1.457352
2.799500	1.457033
2.800000	1.456077
2.800500	1.454803
2.801000	1.455759
2.801500	1.455440
2.802000	1.455440
2.802500	1.455440
2.803000	1.454485
2.803500	1.455440
2.804000	1.457352
2.804500	1.456714
2.805000	1.455440
2.805500	1.454166
2.806000	1.455759
2.806500	1.457352
2.807000	1.455759
2.807500	1.453211
2.808000	1.455122
2.808500	1.457989
2.809000	1.456077
2.809500	1.452255
2.810000	1.454485
2.810500	1.458626
2.811000	1.456714
2.811500	1.452892
2.812000	1.453529
2.812500	1.457670
2.813000	1.456077
2.813500	1.454166
2.814000	1.454485
2.814500	1.455759
2.815000	1.456396
2.815500	1.455759
2.816000	1.455122
2.816500	1.455759
2.817000	1.455440
2.817500	1.456396
2.818000	1.456077
2.818500	1.455440
2.819000	1.454803
2.819500	1.455759
2.820000	1.457033
2.820500	1.455440
2.821000	1.453529
2.821500	1.455440
2.822000	1.458307
2.822500	1.456077
2.823000	1.453211
2.823500	1.455122
2.824000	1.459263
2.824500	1.456396
2.825000	1.453211
2.825500	1.456396
2.826000	1.457989
2.826500	1.456714
2.827000	1.454166
2.827500	1.454803
2.828000	1.456714
2.828500	1.456714
2.829000	1.455440
2.829500	1.455759
2.830000	1.456714
2.830500	1.455759
2.831000	1.456714
2.831500	1.456714
2.832000	1.455440
2.832500	1.455122
2.833000	1.456077
2.833500	1.457352
2.834000	1.456396
2.834500	1.453211
2.835000	1.455440
2.835500	1.458307
2.836000	1.456077
2.836500	1.453211
2.837000	1.455122
2.837500	1.458626
2.838000	1.456396
2.838500	1.452892
2.839000	1.454803
2.839500	1.458307
2.840000	1.457352
2.840500	1.454485
2.841000	1.455440
2.841500	1.457033
2.842000	1.456714
2.842500	1.455440
2.843000	1.455440
2.843500	1.455440
2.844000	1.456714
2.844500	1.456714
2.845000	1.456396
2.845500	1.454803
2.846000	1.454803
2.846500	1.457033
2.847000	1.457033
2.847500	1.455122
2.848000	1.453529
2.848500	1.456396
2.849000	1.458307
2.849500	1.456077
2.850000	1.452892
2.850500	1.455759
2.851000	1.458944
2.851500	1.456714
2.852000	1.453211
2.852500	1.454803
2.853000	1.457670
2.853500	1.457033
2.854000	1.455440
2.854500	1.454803
2.855000	1.456714
2.855500	1.456714
2.856000	1.456077
2.856500	1.455440
2.857000	1.456077
2.857500	1.455759
2.858000	1.457033
2.858500	1.456396
2.859000	1.455122
2.859500	1.456077
2.860000	1.457033
2.860500	1.457352
2.861000	1.455759
2.861500	1.454485
2.862000	1.455759
2.862500	1.458944
2.863000	1.457352
2.863500	1.453529
2.864000	1.455759
2.864500	1.458944
2.865000	1.457033
2.865500	1.453211
2.866000	1.455759
2.866500	1.458944
2.867000	1.457033
2.867500	1.453848
2.868000	1.455122
2.868500	1.457033
2.869000	1.457352
2.869500	1.456396
2.870000	1.455440
2.870500	1.455440
2.871000	1.456396
2.871500	1.457352
2.872000	1.456077
2.872500	1.456077
2.873000	1.455440
2.873500	1.456396
2.874000	1.457670
2.874500	1.455759
2.875000	1.454803
2.875500	1.456077
2.876000	1.458944
2.876500	1.457670
2.877000	1.453529
2.877500	1.455122
2.878000	1.459263
2.878500	1.457670
2.879000	1.453848
2.879500	1.455122
2.880000	1.458307
2.880500	1.457352
2.881000	1.455122
2.881500	1.455440
2.882000	1.456714
2.882500	1.456714
2.883000	1.456396
2.883500	1.455440
2.884000	1.455759
2.884500	1.456396
2.885000	1.457033
2.885500	1.456714
2.886000	1.456396
2.886500	1.455440
2.887000	1.456396
2.887500	1.458307
2.888000	1.457033
2.888500	1.454166
2.889000	1.456077
2.889500	1.459581
2.890000	1.456714
2.890500	1.453848
2.891000	1.455122
2.891500	1.459263
2.892000	1.457352
2.892500	1.454166
2.893000	1.455440
2.893500	1.457989
2.894000	1.456714
2.894500	1.455440
2.895000	1.455440
2.895500	1.457033
2.896000	1.457033
2.896500	1.456714
2.897000	1.456077
2.897500	1.455122
2.898000	1.456396
2.898500	1.457670
2.899000	1.456396
2.899500	1.455759
2.900000	1.454803
2.900500	1.456077
2.901000	1.457670
2.901500	1.455759
2.902000	1.453529
2.902500	1.455440
2.903000	1.459581
2.903500	1.456714
2.904000	1.452892
2.904500	1.455122
2.905000	1.458944
2.905500	1.457352
2.906000	1.454166
2.906500	1.454485
2.907000	1.457033
2.907500	1.457352
2.908000	1.455440
2.908500	1.454803
2.909000	1.456396
2.909500	1.457033
2.910000	1.456077
2.910500	1.456714
2.911000	1.456077
2.911500	1.456396
2.912000	1.456714
2.912500	1.456714
2.913000	1.455759
2.913500	1.454803
2.914000	1.456714
2.914500	1.458626
2.915000	1.457352
2.915500	1.454803
2.916000	1.455759
2.916500	1.459263
2.917000	1.457670
2.917500	1.453211
2.918000	1.454485
2.918500	1.458944
2.919000	1.457352
2.919500	1.453529
2.920000	1.455122
2.920500	1.457670
2.921000	1.457033
2.921500	1.456396
2.922000	1.455759
2.922500	1.456396
2.923000	1.457352
2.923500	1.457670
2.924000	1.457352
2.924500	1.455759
2.925000	1.456714
2.925500	1.457352
2.926000	1.457989
2.926500	1.455759
2.927000	1.454166
2.927500	1.456396
2.928000	1.457989
2.928500	1.457352
2.929000	1.452892
2.929500	1.455759
2.930000	1.459581
2.930500	1.457670
2.931000	1.453211
2.931500	1.455440
2.932000	1.457670
2.932500	1.457670
2.933000	1.455122
2.933500	1.455122
2.934000	1.457352
2.934500	1.456396
2.935000	1.457670
2.935500	1.456714
2.936000	1.456077
2.936500	1.456714
2.937000	1.457033
2.937500	1.456077
2.938000	1.456077
2.938500	1.455122
2.939000	1.456714
2.939500	1.458944
2.940000	1.456077
2.940500	1.454166
2.941000	1.455759
2.941500	1.459581
2.942000	1.457352
2.942500	1.453848
2.943000	1.455122
2.943500	1.459263
2.944000	1.457989
2.944500	1.454485
2.945000	1.455122
2.945500	1.458307
2.946000	1.457352
2.946500	1.455440
2.947000	1.456077
2.947500	1.456714
2.948000	1.457352
2.948500	1.456714
2.949000	1.456077
2.949500	1.456077
2.950000	1.456714
2.950500	1.457989
2.951000	1.456714
2.951500	1.455759
2.952000	1.456077
2.952500	1.456714
2.953000	1.458307
2.953500	1.457033
2.954000	1.453848
2.954500	1.455759
2.955000	1.459263
2.955500	1.456396
2.956000	1.453211
2.956500	1.455122
2.957000	1.459900
2.957500	1.457670
2.958000	1.454166
2.958500	1.455759
2.959000	1.457989
2.959500	1.457989
2.960000	1.456077
2.960500	1.455122
2.961000	1.457352
2.961500	1.456714
2.962000	1.457670
2.962500	1.456396
2.963000	1.455759
2.963500	1.455122
2.964000	1.456714
2.964500	1.457670
2.965000	1.457033
2.965500	1.455122
2.966000	1.456396
2.966500	1.459900
2.967000	1.456714
2.967500	1.454803
2.968000	1.456077
2.968500	1.459900
2.969000	1.457352
2.969500	1.453848
2.970000	1.455759
2.970500	1.459263
2.971000	1.457989
2.971500	1.454803
2.972000	1.455440
2.972500	1.457352
2.973000	1.457670
2.973500	1.457033
2.974000	1.456714
2.974500	1.455122
2.975000	1.457033
2.975500	1.457352
2.976000	1.456714
2.976500	1.456396
2.977000	1.456714
2.977500	1.458307
2.978000	1.458307
2.978500	1.456396
2.979000	1.455122
2.979500	1.456077
2.980000	1.459900
2.980500	1.457670
2.981000	1.454166
2.981500	1.455440
2.982000	1.459900
2.982500	1.457989
2.983000	1.454166
2.983500	1.455759
2.984000	1.459263
2.984500	1.457989
2.985000	1.455759
2.985500	1.456714
2.986000	1.457033
2.986500	1.457352
2.987000	1.457670
2.987500	1.456714
2.988000	1.456396
2.988500	1.457033
2.989000	1.457352
2.989500	1.457033
2.990000	1.456714
2.990500	1.455759
2.991000	1.457670
2.991500	1.457989
2.992000	1.456396
2.992500	1.454803
2.993000	1.456396
2.993500	1.459581
2.994000	1.457352
2.994500	1.453211
2.995000	1.456077
2.995500	1.460218
2.996000	1.457352
2.996500	1.453848
2.997000	1.455440
2.997500	1.458307
2.998000	1.457670
2.998500	1.454803
2.999000	1.455759
2.999500	1.456077
3.000000	1.457033
3.000500	1.456396
3.001000	1.456714
3.001500	1.455122
3.002000	1.457352
3.002500	1.456714
3.003000	1.456714
3.003500	1.456077
3.004000	1.454485
3.004500	1.457033
3.005000	1.459263
3.005500	1.456714
3.006000	1.453529
3.006500	1.456077
3.007000	1.459581
3.007500	1.457989
3.008000	1.454166
3.008500	1.455440
3.009000	1.458307
3.009500	1.457670
3.010000	1.454166
3.010500	1.455440
3.011000	1.457352
3.011500	1.457670
3.012000	1.456396
3.012500	1.456077
3.013000	1.456077
3.013500	1.456396
3.014000	1.457352
3.014500	1.457352
3.015000	1.455759
3.015500	1.455759
3.016000	1.456714
3.016500	1.457670
3.017000	1.455759
3.017500	1.454166
3.018000	1.456714
3.018500	1.458307
3.019000	1.457033
3.019500	1.452255
3.020000	1.455440
3.020500	1.459900
3.021000	1.457352
3.021500	1.453848
3.022000	1.455440
3.022500	1.457989
3.023000	1.457352
3.023500	1.455759
3.024000	1.455759
3.024500	1.455759
3.025000	1.456714
3.025500	1.457033
3.026000	1.456396
3.026500	1.455122
3.027000	1.455440
3.027500	1.457352
3.028000	1.457670
3.028500	1.456077
3.029000	1.455122
3.029500	1.457352
3.030000	1.459263
3.030500	1.457033
3.031000	1.454166
3.031500	1.456077
3.032000	1.459581
3.032500	1.458626
3.033000	1.453529
3.033500	1.456077
3.034000	1.458944
3.034500	1.457989
3.035000	1.454803
3.035500	1.456396
3.036000	1.457352
3.036500	1.457352
3.037000	1.456714
3.037500	1.455759
3.038000	1.456714
3.038500	1.457033
3.039000	1.457033
3.039500	1.456396
3.040000	1.455440
3.040500	1.456396
3.041000	1.456714
3.041500	1.457989
3.042000	1.456077
3.042500	1.455122
3.043000	1.456714
3.043500	1.459263
3.044000	1.457033
3.044500	1.452892
3.045000	1.455440
3.045500	1.459263
3.046000	1.457352
3.046500	1.453848
3.047000	1.455759
3.047500	1.457670
3.048000	1.458307
3.048500	1.455440
3.049000	1.455440
3.049500	1.456714
3.050000	1.456714
3.050500	1.456714
3.051000	1.455759
3.051500	1.455759
3.052000	1.456396
3.052500	1.456714
3.053000	1.456714
3.053500	1.456396
3.054000	1.455440
3.054500	1.456077
3.055000	1.458626
3.055500	1.457033
3.056000	1.453848
3.056500	1.455759
3.057000	1.459900
3.057500	1.457670
3.058000	1.454803
3.058500	1.455122
3.059000	1.459581
3.059500	1.457989
3.060000	1.454803
3.060500	1.455759
3.061000	1.458626
3.061500	1.457033
3.062000	1.456714
3.062500	1.456396
3.063000	1.456714
3.063500	1.457033
3.064000	1.457352
3.064500	1.456714
3.065000	1.456714
3.065500	1.456396
3.066000	1.457352
3.066500	1.457670
3.067000	1.456077
3.067500	1.455122
3.068000	1.456396
3.068500	1.458307
3.069000	1.457670
3.069500	1.454803
3.070000	1.455759
3.070500	1.459900
3.071000	1.457352
3.071500	1.454166
3.072000	1.454803
3.072500	1.459263
3.073000	1.457989
3.073500	1.454803
3.074000	1.455759
3.074500	1.457670
3.075000	1.457033
3.075500	1.456396
3.076000	1.455440
3.076500	1.457033
3.077000	1.457033
3.077500	1.457033
3.078000	1.456396
3.078500	1.455122
3.079000	1.456077
3.079500	1.457033
3.080000	1.457670
3.080500	1.455759
3.081000	1.454803
3.081500	1.456714
3.082000	1.458944
3.082500	1.457033
3.083000	1.453848
3.083500	1.456077
3.084000	1.459263
3.084500	1.457670
3.085000	1.452892
3.085500	1.455759
3.086000	1.459263
3.086500	1.457352
3.087000	1.455440
3.087500	1.456077
3.088000	1.457989
3.088500	1.457033
3.089000	1.456714
3.089500	1.457033
3.090000	1.457352
3.090500	1.457352
3.091000	1.457670
3.091500	1.456714
3.092000	1.455759
3.092500	1.456396
3.093000	1.456714
3.093500	1.457989
3.094000	1.457033
3.094500	1.456714
3.095000	1.455759
3.095500	1.459900
3.096000	1.457352
3.096500	1.453529
3.097000	1.456077
3.097500	1.459581
3.098000	1.457352
3.098500	1.453848
3.099000	1.455440
3.099500	1.458944
3.100000	1.457989
3.100500	1.454803
3.101000	1.455759
3.101500	1.458307
3.102000	1.457670
3.102500	1.456396
3.103000	1.455759
3.103500	1.456077
3.104000	1.456714
3.104500	1.457989
3.105000	1.456714
3.105500	1.456396
3.106000	1.456714
3.106500	1.457352
3.107000	1.457670
3.107500	1.456396
3.108000	1.454485
3.108500	1.457033
3.109000	1.459263
3.109500	1.457033
3.110000	1.453848
3.110500	1.455122
3.111000	1.460537
3.111500	1.457352
3.112000	1.454166
3.112500	1.456396
3.113000	1.459263
3.113500	1.457989
3.114000	1.455440
3.114500	1.455759
3.115000	1.458626
3.115500	1.457670
3.116000	1.456077
3.116500	1.456714
3.117000	1.456714
3.117500	1.456714
3.118000	1.457033
3.118500	1.456396
3.119000	1.455759
3.119500	1.456396
3.120000	1.457670
3.120500	1.458307
3.121000	1.457033
3.121500	1.454166
3.122000	1.456396
3.122500	1.458944
3.123000	1.457033
3.123500	1.454803
3.124000	1.455759
3.124500	1.460537
3.125000	1.458307
3.125500	1.453529
3.126000	1.455759
3.126500	1.458944
3.127000	1.457352
3.127500	1.455122
3.128000	1.456396
3.128500	1.457670
3.129000	1.457989
3.129500	1.457033
3.130000	1.456077
3.130500	1.456396
3.131000	1.457033
3.131500	1.457989
3.132000	1.457033
3.132500	1.456077
3.133000	1.455759
3.133500	1.457033
3.134000	1.457989
3.134500	1.456077
3.135000	1.455122
3.135500	1.456714
3.136000	1.458944
3.136500	1.456714
3.137000	1.454166
3.137500	1.456396
3.138000	1.459263
3.138500	1.457670
3.139000	1.454166
3.139500	1.455440
3.140000	1.458944
3.140500	1.457989
3.141000	1.454803
3.141500	1.455440
3.142000	1.456714
3.142500	1.457352
3.143000	1.457352
3.143500	1.456077
3.144000	1.456077
3.144500	1.457033
3.145000	1.458307
3.145500	1.456714
3.146000	1.456077
3.146500	1.456077
3.147000	1.457670
3.147500	1.457989
3.148000	1.456714
3.148500	1.455440
3.149000	1.457670
3.149500	1.459263
3.150000	1.456714
3.150500	1.454166
3.151000	1.455440
3.151500	1.460218
3.152000	1.457989
3.152500	1.455122
3.153000	1.455122
3.153500	1.460218
3.154000	1.457670
3.154500	1.455122
3.155000	1.456077
3.155500	1.457033
3.156000	1.457352
3.156500	1.456714
3.157000	1.455440
3.157500	1.456077
3.158000	1.457352
3.158500	1.457352
3.159000	1.456077
3.159500	1.456077
3.160000	1.456077
3.160500	1.456396
3.161000	1.457352
3.161500	1.455759
3.162000	1.454803
3.162500	1.457033
3.163000	1.458307
3.163500	1.456714
3.164000	1.453211
3.164500	1.455122
3.165000	1.459263
3.165500	1.456714
3.166000	1.452892
3.166500	1.455440
3.167000	1.459263
3.167500	1.457352
3.168000	1.454485
3.168500	1.455440
3.169000	1.457352
3.169500	1.456396
3.170000	1.456077
3.170500	1.456396
3.171000	1.455759
3.171500	1.456714
3.172000	1.457670
3.172500	1.456714
3.173000	1.456396
3.173500	1.455759
3.174000	1.456714
3.174500	1.457670
3.175000	1.456714
3.175500	1.455122
3.176000	1.456714
3.176500	1.458626
3.177000	1.457033
3.177500	1.454166
3.178000	1.455440
3.178500	1.459263
3.179000	1.457352
3.179500	1.453529
3.180000	1.454803
3.180500	1.459581
3.181000	1.457352
3.181500	1.452892
3.182000	1.454803
3.182500	1.457352
3.183000	1.457352
3.183500	1.455440
3.184000	1.455440
3.184500	1.456077
3.185000	1.457033
3.185500	1.457033
3.186000	1.456714
3.186500	1.455440
3.187000	1.456396
3.187500	1.457352
3.188000	1.456714
3.188500	1.454485
3.189000	1.455122
3.189500	1.456396
3.190000	1.458307
3.190500	1.456396
3.191000	1.453211
3.191500	1.455440
3.192000	1.458944
3.192500	1.456714
3.193000	1.453211
3.193500	1.455759
3.194000	1.458944
3.194500	1.457033
3.195000	1.453848
3.195500	1.455759
3.196000	1.457670
3.196500	1.457033
3.197000	1.456396
3.197500	1.455759
3.198000	1.455759
3.198500	1.457033
3.199000	1.456714
3.199500	1.456396
3.200000	1.456396
3.200500	1.456714
3.201000	1.457033
3.201500	1.457033
3.202000	1.455759
3.202500	1.455122
3.203000	1.456714
3.203500	1.457989
3.204000	1.457033
3.204500	1.453529
3.205000	1.456077
3.205500	1.460218
3.206000	1.457670
3.206500	1.453529
3.207000	1.455759
3.207500	1.460218
3.208000	1.457352
3.208500	1.454485
3.209000	1.455122
3.209500	1.458626
3.210000	1.457352
3.210500	1.456077
3.211000	1.455759
3.211500	1.457033
3.212000	1.457670
3.212500	1.456714
3.213000	1.456396
3.213500	1.456077
3.214000	1.456396
3.214500	1.457989
3.215000	1.456714
3.215500	1.454803
3.216000	1.456077
3.216500	1.457033
3.217000	1.457989
3.217500	1.455759
3.218000	1.454166
3.218500	1.456077
3.219000	1.457989
3.219500	1.456396
3.220000	1.454166
3.220500	1.455759
3.221000	1.459900
3.221500	1.457989
3.222000	1.453529
3.222500	1.455122
3.223000	1.458944
3.223500	1.457989
3.224000	1.454485
3.224500	1.454803
3.225000	1.457352
3.225500	1.457352
3.226000	1.456077
3.226500	1.455759
3.227000	1.456077
3.227500	1.456714
3.228000	1.457033
3.228500	1.456714
3.229000	1.454803
3.229500	1.455759
3.230000	1.456714
3.230500	1.457989
3.231000	1.456077
3.231500	1.455440
3.232000	1.450025
3.232500	1.457670
3.233000	1.456396
3.233500	1.453848
3.234000	1.455440
3.234500	1.458944
3.235000	1.456714
3.235500	1.452892
3.236000	1.455122
3.236500	1.458944
3.237000	1.457670
3.237500	1.453848
3.238000	1.455440
3.238500	1.457670
3.239000	1.456714
3.239500	1.455440
3.240000	1.456077
3.240500	1.457033
3.241000	1.457352
3.241500	1.456077
3.242000	1.456077
3.242500	1.455440
3.243000	1.455440
3.243500	1.457989
3.244000	1.456714
3.244500	1.455440
3.245000	1.455759
3.245500	1.456396
3.246000	1.457989
3.246500	1.456714
3.247000	1.455440
3.247500	1.456077
3.248000	1.459900
3.248500	1.456714
3.249000	1.453529
3.249500	1.455759
3.250000	1.459900
3.250500	1.457352
3.251000	1.453529
3.251500	1.454803
3.252000	1.458944
3.252500	1.456396
3.253000	1.456396
3.253500	1.456077
3.254000	1.456396
3.254500	1.457670
3.255000	1.457352
3.255500	1.457033
3.256000	1.455759
3.256500	1.456714
3.257000	1.457670
3.257500	1.457989
3.258000	1.456077
3.258500	1.455122
3.259000	1.456714
3.259500	1.457989
3.260000	1.457033
3.260500	1.453848
3.261000	1.455440
3.261500	1.458944
3.262000	1.457352
3.262500	1.453529
3.263000	1.454803
3.263500	1.458626
3.264000	1.457670
3.264500	1.454166
3.265000	1.455122
3.265500	1.458944
3.266000	1.457352
3.266500	1.455122
3.267000	1.455122
3.267500	1.456714
3.268000	1.457033
3.268500	1.456714
3.269000	1.455759
3.269500	1.455440
3.270000	1.455759
3.270500	1.457670
3.271000	1.456714
3.271500	1.455440
3.272000	1.456714
3.272500	1.457352
3.273000	1.457989
3.273500	1.457033
3.274000	1.454166
3.274500	1.456077
3.275000	1.459263
3.275500	1.457352
3.276000	1.452892
3.276500	1.455122
3.277000	1.459900
3.277500	1.457033
3.278000	1.453529
3.278500	1.455122
3.279000	1.458626
3.279500	1.457670
3.280000	1.454803
3.280500	1.456077
3.281000	1.456714
3.281500	1.456714
3.282000	1.457033
3.282500	1.456077
3.283000	1.456077
3.283500	1.456396
3.284000	1.457670
3.284500	1.457670
3.285000	1.456396
3.285500	1.456396
3.286000	1.457352
3.286500	1.458626
3.287000	1.455759
3.287500	1.454485
3.288000	1.456396
3.288500	1.459581
3.289000	1.457989
3.289500	1.453848
3.290000	1.455440
3.290500	1.460537
3.291000	1.457670
3.291500	1.454166
3.292000	1.455440
3.292500	1.459263
3.293000	1.457989
3.293500	1.455122
3.294000	1.455759
3.294500	1.457033
3.295000	1.457989
3.295500	1.456396
3.296000	1.455759
3.296500	1.456077
3.297000	1.456396
3.297500	1.457352
3.298000	1.456077
3.298500	1.455440
3.299000	1.456396
3.299500	1.456714
3.300000	1.458307
3.300500	1.456077
3.301000	1.454485
3.301500	1.456714
3.302000	1.459900
3.302500	1.457670
3.303000	1.453848
3.303500	1.456077
3.304000	1.460537
3.304500	1.458626
3.305000	1.454803
3.305500	1.456077
3.306000	1.457989
3.306500	1.457989
3.307000	1.455440
3.307500	1.456396
3.308000	1.457033
3.308500	1.457352
3.309000	1.457033
3.309500	1.456396
3.310000	1.456396
3.310500	1.456077
3.311000	1.457670
3.311500	1.457033
3.312000	1.456714
3.312500	1.456396
3.313000	1.457670
3.313500	1.458307
3.314000	1.457033
3.314500	1.454803
3.315000	1.456077
3.315500	1.458307
3.316000	1.457033
3.316500	1.452892
3.317000	1.456077
3.317500	1.459581
3.318000	1.457670
3.318500	1.452892
3.319000	1.455122
3.319500	1.458944
3.320000	1.457670
3.320500	1.454803
3.321000	1.455122
3.321500	1.457670
3.322000	1.457033
3.322500	1.456077
3.323000	1.455759
3.323500	1.456396
3.324000	1.456714
3.324500	1.457352
3.325000	1.456077
3.325500	1.455440
3.326000	1.455122
3.326500	1.456714
3.327000	1.457352
3.327500	1.456396
3.328000	1.454166
3.328500	1.455759
3.329000	1.458307
3.329500	1.456714
3.330000	1.453211
3.330500	1.454803
3.331000	1.459581
3.331500	1.457989
3.332000	1.453529
3.332500	1.455440
3.333000	1.459263
3.333500	1.457352
3.334000	1.455122
3.334500	1.455759
3.335000	1.457670
3.335500	1.457670
3.336000	1.456714
3.336500	1.455759
3.337000	1.456396
3.337500	1.456714
3.338000	1.457033
3.338500	1.456714
3.339000	1.454803
3.339500	1.456077
3.340000	1.457670
3.340500	1.457989
3.341000	1.457352
3.341500	1.455122
3.342000	1.456396
3.342500	1.459263
3.343000	1.457033
3.343500	1.453848
3.344000	1.455759
3.344500	1.459581
3.345000	1.457352
3.345500	1.453848
3.346000	1.455759
3.346500	1.459263
3.347000	1.457352
3.347500	1.454485
3.348000	1.455759
3.348500	1.458307
3.349000	1.457670
3.349500	1.456396
3.350000	1.455440
3.350500	1.456714
3.351000	1.457352
3.351500	1.457352
3.352000	1.456714
3.352500	1.456714
3.353000	1.456077
3.353500	1.457033
3.354000	1.457989
3.354500	1.455440
3.355000	1.453848
3.355500	1.457352
3.356000	1.457989
3.356500	1.457033
3.357000	1.453848
3.357500	1.455122
3.358000	1.459900
3.358500	1.457352
3.359000	1.453848
3.359500	1.454803
3.360000	1.458626
3.360500	1.457352
3.361000	1.454166
3.361500	1.455759
3.362000	1.456714
3.362500	1.456396
3.363000	1.456396
3.363500	1.454803
3.364000	1.455759
3.364500	1.456714
3.365000	1.457033
3.365500	1.455759
3.366000	1.455440
3.366500	1.456077
3.367000	1.457352
3.367500	1.457670
3.368000	1.456077
3.368500	1.453848
3.369000	1.455759
3.369500	1.459581
3.370000	1.456077
3.370500	1.453211
3.371000	1.455759
3.371500	1.459263
3.372000	1.457670
3.372500	1.453848
3.373000	1.455122
3.373500	1.458626
3.374000	1.457352
3.374500	1.455122
3.375000	1.455440
3.375500	1.457352
3.376000	1.456714
3.376500	1.456077
3.377000	1.456714
3.377500	1.455440
3.378000	1.456714
3.378500	1.457033
3.379000	1.456396
3.379500	1.455440
3.380000	1.455440
3.380500	1.457033
3.381000	1.457989
3.381500	1.455759
3.382000	1.453848
3.382500	1.456396
3.383000	1.459263
3.383500	1.456714
3.384000	1.453848
3.384500	1.456077
3.385000	1.459581
3.385500	1.457352
3.386000	1.454803
3.386500	1.455440
3.387000	1.458626
3.387500	1.457670
3.388000	1.456077
3.388500	1.455440
3.389000	1.456714
3.389500	1.456714
3.390000	1.457670
3.390500	1.456714
3.391000	1.455759
3.391500	1.457352
3.392000	1.457670
3.392500	1.458626
3.393000	1.456714
3.393500	1.455440
3.394000	1.455759
3.394500	1.458626
3.395000	1.456714
3.395500	1.454166
3.396000	1.456077
3.396500	1.459581
3.397000	1.457989
3.397500	1.453848
3.398000	1.454803
3.398500	1.458626
3.399000	1.457670
3.399500	1.454485
3.400000	1.454803
3.400500	1.457670
3.401000	1.457033
3.401500	1.456396
3.402000	1.455759
3.402500	1.456714
3.403000	1.456714
3.403500	1.456396
3.404000	1.456077
3.404500	1.455122
3.405000	1.456077
3.405500	1.457352
3.406000	1.457033
3.406500	1.456396
3.407000	1.454166
3.407500	1.456077
3.408000	1.458944
3.408500	1.456077
3.409000	1.454485
3.409500	1.455759
3.410000	1.459900
3.410500	1.457033
3.411000	1.453848
3.411500	1.455122
3.412000	1.458944
3.412500	1.457670
3.413000	1.455440
3.413500	1.455759
3.414000	1.457352
3.414500	1.456714
3.415000	1.456714
3.415500	1.455759
3.416000	1.455440
3.416500	1.456714
3.417000	1.457352
3.417500	1.457033
3.418000	1.456077
3.418500	1.455440
3.419000	1.457670
3.419500	1.457352
3.420000	1.456396
3.420500	1.454166
3.421000	1.456714
3.421500	1.459263
3.422000	1.457033
3.422500	1.453848
3.423000	1.455759
3.423500	1.459263
3.424000	1.457033
3.424500	1.454166
3.425000	1.455122
3.425500	1.459263
3.426000	1.457352
3.426500	1.454485
3.427000	1.455122
3.427500	1.457352
3.428000	1.456396
3.428500	1.456396
3.429000	1.455440
3.429500	1.455122
3.430000	1.456714
3.430500	1.457670
3.431000	1.457033
3.431500	1.456077
3.432000	1.457352
3.432500	1.456714
3.433000	1.458307
3.433500	1.456077
3.434000	1.454803
3.434500	1.456714
3.435000	1.458626
3.435500	1.457352
3.436000	1.453848
3.436500	1.455440
3.437000	1.459581
3.437500	1.457670
3.438000	1.453848
3.438500	1.455440
3.439000	1.458307
3.439500	1.457670
3.440000	1.455122
3.440500	1.455122
3.441000	1.457033
3.441500	1.457352
3.442000	1.456714
3.442500	1.455759
3.443000	1.456396
3.443500	1.455759
3.444000	1.457989
3.444500	1.457033
3.445000	1.456077
3.445500	1.455440
3.446000	1.457033
3.446500	1.458307
3.447000	1.456077
3.447500	1.454166
3.448000	1.456077
3.448500	1.458626
3.449000	1.456714
3.449500	1.453211
3.450000	1.455440
3.450500	1.459900
3.451000	1.457670
3.451500	1.454485
3.452000	1.454803
3.452500	1.457989
3.453000	1.457033
3.453500	1.455759
3.454000	1.456396
3.454500	1.456714
3.455000	1.456077
3.455500	1.457033
3.456000	1.456077
3.456500	1.455440
3.457000	1.456714
3.457500	1.456714
3.458000	1.456714
3.458500	1.455759
3.459000	1.454803
3.459500	1.456077
3.460000	1.457989
3.460500	1.456077
3.461000	1.453529
3.461500	1.455759
3.462000	1.459263
3.462500	1.457033
3.463000	1.452573
3.463500	1.455440
3.464000	1.458944
3.464500	1.457670
3.465000	1.455122
3.465500	1.455122
3.466000	1.457670
3.466500	1.456714
3.467000	1.454803
3.467500	1.455440
3.468000	1.455759
3.468500	1.456714
3.469000	1.456714
3.469500	1.456714
3.470000	1.455440
3.470500	1.455759
3.471000	1.457352
3.471500	1.456714
3.472000	1.454803
3.472500	1.454166
3.473000	1.456396
3.473500	1.458307
3.474000	1.456077
3.474500	1.453848
3.475000	1.455759
3.475500	1.458944
3.476000	1.456714
3.476500	1.453848
3.477000	1.455440
3.477500	1.459581
3.478000	1.457352
3.478500	1.454166
3.479000	1.455122
3.479500	1.457989
3.480000	1.457033
3.480500	1.455440
3.481000	1.455759
3.481500	1.455440
3.482000	1.455759
3.482500	1.457670
3.483000	1.457033
3.483500	1.456077
3.484000	1.455759
3.484500	1.457352
3.485000	1.457033
3.485500	1.456077
3.486000	1.454803
3.486500	1.457033
3.487000	1.458307
3.487500	1.456077
3.488000	1.453848
3.488500	1.454485
3.489000	1.459263
3.489500	1.456396
3.490000	1.452892
3.490500	1.455122
3.491000	1.458307
3.491500	1.457033
3.492000	1.455122
3.492500	1.455759
3.493000	1.457352
3.493500	1.457033
3.494000	1.455759
3.494500	1.455122
3.495000	1.455759
3.495500	1.455440
3.496000	1.456077
3.496500	1.456077
3.497000	1.455122
3.497500	1.455122
3.498000	1.456714
3.498500	1.456714
3.499000	1.455122
3.499500	1.454166
3.500000	1.455440
3.500500	1.458944
3.501000	1.457352
3.501500	1.453211
3.502000	1.455440
3.502500	1.459263
3.503000	1.457670
3.503500	1.453211
3.504000	1.455122
3.504500	1.458307
3.505000	1.457033
3.505500	1.454485
3.506000	1.456077
3.506500	1.456396
3.507000	1.456714
3.507500	1.457033
3.508000	1.455440
3.508500	1.455440
3.509000	1.456714
3.509500	1.456714
3.510000	1.456396
3.510500	1.456396
3.511000	1.454803
3.511500	1.457033
3.512000	1.457670
3.512500	1.456714
3.513000	1.453529
3.513500	1.455440
3.514000	1.458944
3.514500	1.456396
3.515000	1.452573
3.515500	1.455440
3.516000	1.458307
3.516500	1.457352
3.517000	1.453848
3.517500	1.454166
3.518000	1.457989
3.518500	1.456396
3.519000	1.453848
3.519500	1.455122
3.520000	1.456396
3.520500	1.456714
3.521000	1.455759
3.521500	1.455440
3.522000	1.454803
3.522500	1.456396
3.523000	1.456714
3.523500	1.456714
3.524000	1.454166
3.524500	1.455440
3.525000	1.456714
3.525500	1.457670
3.526000	1.455759
3.526500	1.453848
3.527000	1.455759
3.527500	1.457989
3.528000	1.456396
3.528500	1.452892
3.529000	1.455122
3.529500	1.459263
3.530000	1.457352
3.530500	1.452892
3.531000	1.454803
3.531500	1.458626
3.532000	1.457033
3.532500	1.455122
3.533000	1.456077
3.533500	1.456714
3.534000	1.456077
3.534500	1.457033
3.535000	1.455440
3.535500	1.455122
3.536000	1.456396
3.536500	1.457352
3.537000	1.456714
3.537500	1.455440
3.538000	1.455122
3.538500	1.456396
3.539000	1.458944
3.539500	1.455759
3.540000	1.453529
3.540500	1.455440
3.541000	1.458944
3.541500	1.456714
3.542000	1.453848
3.542500	1.455122
3.543000	1.458626
3.543500	1.457352
3.544000	1.453529
3.544500	1.454485
3.545000	1.458307
3.545500	1.456714
3.546000	1.455440
3.546500	1.455122
3.547000	1.455440
3.547500	1.456714
3.548000	1.457033
3.548500	1.455122
3.549000	1.455122
3.549500	1.455122
3.550000	1.456396
3.550500	1.456077
3.551000	1.455440
3.551500	1.455440
3.552000	1.455759
3.552500	1.457670
3.553000	1.455759
3.553500	1.453211
3.554000	1.455440
3.554500	1.459263
3.555000	1.456396
3.555500	1.453529
3.556000	1.455440
3.556500	1.458944
3.557000	1.457352
3.557500	1.454166
3.558000	1.456077
3.558500	1.456077
3.559000	1.457033
3.559500	1.456396
3.560000	1.455759
3.560500	1.455759
3.561000	1.456077
3.561500	1.456396
3.562000	1.456077
3.562500	1.455122
3.563000	1.456077
3.563500	1.456396
3.564000	1.456714
3.564500	1.455440
3.565000	1.454485
3.565500	1.457033
3.566000	1.458307
3.566500	1.456077
3.567000	1.452892
3.567500	1.455440
3.568000	1.459263
3.568500	1.456396
3.569000	1.453211
3.569500	1.454803
3.570000	1.458626
3.570500	1.457033
3.571000	1.453848
3.571500	1.454803
3.572000	1.455759
3.572500	1.456396
3.573000	1.456396
3.573500	1.455122
3.574000	1.455440
3.574500	1.456077
3.575000	1.457352
3.575500	1.455759
3.576000	1.454803
3.576500	1.455440
3.577000	1.456396
3.577500	1.457352
3.578000	1.455122
3.578500	1.454485
3.579000	1.456077
3.579500	1.457989
3.580000	1.455759
3.580500	1.452892
3.581000	1.454485
3.581500	1.458626
3.582000	1.456396
3.582500	1.453211
3.583000	1.454166
3.583500	1.458944
3.584000	1.456396
3.584500	1.455122
3.585000	1.454803
3.585500	1.457033
3.586000	1.456396
3.586500	1.455759
3.587000	1.456077
3.587500	1.455440
3.588000	1.456077
3.588500	1.457033
3.589000	1.456396
3.589500	1.456077
3.590000	1.456396
3.590500	1.456714
3.591000	1.456714
3.591500	1.456077
3.592000	1.454166
3.592500	1.455759
3.593000	1.458626
3.593500	1.457033
3.594000	1.453529
3.594500	1.456396
3.595000	1.458626
3.595500	1.457033
3.596000	1.453529
3.596500	1.454803
3.597000	1.458307
3.597500	1.457352
3.598000	1.455440
3.598500	1.455440
3.599000	1.456077
3.599500	1.455759
3.600000	1.456714
3.600500	1.456077
3.601000	1.455122
3.601500	1.455759
3.602000	1.456396
3.602500	1.456714
3.603000	1.455759
3.603500	1.454803
3.604000	1.455759
3.604500	1.457670
3.605000	1.455759
3.605500	1.452892
3.606000	1.454803
3.606500	1.458944
3.607000	1.456396
3.607500	1.452573
3.608000	1.454166
3.608500	1.457989
3.609000	1.457033
3.609500	1.453529
3.610000	1.454803
3.610500	1.456714
3.611000	1.456714
3.611500	1.454803
3.612000	1.455759
3.612500	1.455122
3.613000	1.457033
3.613500	1.456714
3.614000	1.456396
3.614500	1.454485
3.615000	1.455440
3.615500	1.456396
3.616000	1.456714
3.616500	1.455440
3.617000	1.453848
3.617500	1.455440
3.618000	1.458307
3.618500	1.455759
3.619000	1.453211
3.619500	1.455759
3.620000	1.458626
3.620500	1.456714
3.621000	1.452892
3.621500	1.455122
3.622000	1.457989
3.622500	1.457033
3.623000	1.454485
3.623500	1.454166
3.624000	1.457670
3.624500	1.455759
3.625000	1.455440
3.625500	1.455122
3.626000	1.455759
3.626500	1.455759
3.627000	1.456396
3.627500	1.456077
3.628000	1.455122
3.628500	1.455122
3.629000	1.456077
3.629500	1.457352
3.630000	1.455759
3.630500	1.453848
3.631000	1.454485
3.631500	1.458307
3.632000	1.456077
3.632500	1.452255
3.633000	1.455122
3.633500	1.459263
3.634000	1.457033
3.634500	1.454166
3.635000	1.454166
3.635500	1.457352
3.636000	1.457033
3.636500	1.455759
3.637000	1.454485
3.637500	1.456396
3.638000	1.456396
3.638500	1.456077
3.639000	1.455440
3.639500	1.455122
3.640000	1.456077
3.640500	1.457033
3.641000	1.456714
3.641500	1.455440
3.642000	1.455440
3.642500	1.456077
3.643000	1.457670
3.643500	1.455440
3.644000	1.453848
3.644500	1.455440
3.645000	1.458944
3.645500	1.457033
3.646000	1.452573
3.646500	1.454803
3.647000	1.459581
3.647500	1.457670
3.648000	1.453848
3.648500	1.455122
3.649000	1.457033
3.649500	1.457989
3.650000	1.456077
3.650500	1.456077
3.651000	1.455759
3.651500	1.456396
3.652000	1.457352
3.652500	1.456714
3.653000	1.455440
3.653500	1.455122
3.654000	1.457352
3.654500	1.457670
3.655000	1.456077
3.655500	1.454803
3.656000	1.456714
3.656500	1.458626
3.657000	1.456714
3.657500	1.452892
3.658000	1.456077
3.658500	1.458626
3.659000	1.456396
3.659500	1.453211
3.660000	1.455759
3.660500	1.458944
3.661000	1.457352
3.661500	1.454485
3.662000	1.456077
3.662500	1.456714
3.663000	1.457670
3.663500	1.456714
3.664000	1.456396
3.664500	1.456077
3.665000	1.456396
3.665500	1.457352
3.666000	1.457352
3.666500	1.456077
3.667000	1.455759
3.667500	1.457033
3.668000	1.457670
3.668500	1.456714
3.669000	1.454803
3.669500	1.456077
3.670000	1.458944
3.670500	1.457670
3.671000	1.454803
3.671500	1.454485
3.672000	1.459581
3.672500	1.457033
3.673000	1.453529
3.673500	1.455122
3.674000	1.457989
3.674500	1.457989
3.675000	1.455759
3.675500	1.456077
3.676000	1.456077
3.676500	1.456714
3.677000	1.456714
3.677500	1.456396
3.678000	1.455759
3.678500	1.456396
3.679000	1.456714
3.679500	1.457033
3.680000	1.455759
3.680500	1.455440
3.681000	1.455759
3.681500	1.457352
3.682000	1.456077
3.682500	1.454166
3.683000	1.456714
3.683500	1.458944
3.684000	1.456077
3.684500	1.452892
3.685000	1.456077
3.685500	1.459581
3.686000	1.457670
3.686500	1.454166
3.687000	1.454803
3.687500	1.458307
3.688000	1.457033
3.688500	1.455759
3.689000	1.455122
3.689500	1.456077
3.690000	1.456077
3.690500	1.456077
3.691000	1.454803
3.691500	1.455759
3.692000	1.455759
3.692500	1.457352
3.693000	1.455759
3.693500	1.454485
3.694000	1.455122
3.694500	1.455759
3.695000	1.457033
3.695500	1.456396
3.696000	1.453848
3.696500	1.455759
3.697000	1.459263
3.697500	1.457033
3.698000	1.452573
3.698500	1.455759
3.699000	1.459263
3.699500	1.457352
3.700000	1.453848
3.700500	1.455440
3.701000	1.457989
3.701500	1.457033
3.702000	1.455122
3.702500	1.455759
3.703000	1.456714
3.703500	1.457033
3.704000	1.457352
3.704500	1.455759
3.705000	1.457033
3.705500	1.455759
3.706000	1.457352
3.706500	1.457033
3.707000	1.455759
3.707500	1.455440
3.708000	1.456077
3.708500	1.457670
3.709000	1.455440
3.709500	1.453848
3.710000	1.455440
3.710500	1.458626
3.711000	1.456714
3.711500	1.453211
3.712000	1.455122
3.712500	1.458626
3.713000	1.456396
3.713500	1.453529
3.714000	1.455122
3.714500	1.457352
3.715000	1.456714
3.715500	1.455122
3.716000	1.454803
3.716500	1.456077
3.717000	1.456714
3.717500	1.456396
3.718000	1.455440
3.718500	1.454803
3.719000	1.456714
3.719500	1.457352
3.720000	1.455759
3.720500	1.455440
3.721000	1.454803
3.721500	1.456714
3.722000	1.457670
3.722500	1.456077
3.723000	1.452892
3.723500	1.457033
3.724000	1.458944
3.724500	1.457033
3.725000	1.453529
3.725500	1.454485
3.726000	1.458626
3.726500	1.457352
3.727000	1.454166
3.727500	1.455759
3.728000	1.457670
3.728500	1.457352
3.729000	1.455440
3.729500	1.454803
3.730000	1.456396
3.730500	1.456077
3.731000	1.457033
3.731500	1.456396
3.732000	1.454485
3.732500	1.456077
3.733000	1.457033
3.733500	1.456714
3.734000	1.456396
3.734500	1.454803
3.735000	1.456714
3.735500	1.458626
3.736000	1.455440
3.736500	1.453848
3.737000	1.455440
3.737500	1.460218
3.738000	1.457352
3.738500	1.453848
3.739000	1.454485
3.739500	1.458944
3.740000	1.456714
3.740500	1.454166
3.741000	1.455122
3.741500	1.457033
3.742000	1.457352
3.742500	1.456714
3.743000	1.455759
3.743500	1.456077
3.744000	1.455759
3.744500	1.457033
3.745000	1.455122
3.745500	1.454485
3.746000	1.455759
3.746500	1.456077
3.747000	1.457033
3.747500	1.456396
3.748000	1.454803
3.748500	1.455122
3.749000	1.458626
3.749500	1.456396
3.750000	1.452892
3.750500	1.455440
3.751000	1.459900
3.751500	1.457989
3.752000	1.429957
3.752500	1.455440
3.753000	1.459263
3.753500	1.457352
3.754000	1.454803
3.754500	1.455440
3.755000	1.457670
3.755500	1.457033
3.756000	1.456714
3.756500	1.455759
3.757000	1.456077
3.757500	1.456396
3.758000	1.457033
3.758500	1.456396
3.759000	1.455440
3.759500	1.456077
3.760000	1.456714
3.760500	1.457670
3.761000	1.456714
3.761500	1.455122
3.762000	1.456396
3.762500	1.458944
3.763000	1.457989
3.763500	1.453211
3.764000	1.455122
3.764500	1.459263
3.765000	1.457989
3.765500	1.454485
3.766000	1.455440
3.766500	1.457989
3.767000	1.457670
3.767500	1.455440
3.768000	1.454803
3.768500	1.455759
3.769000	1.456396
3.769500	1.457033
3.770000	1.456714
3.770500	1.455122
3.771000	1.456077
3.771500	1.457352
3.772000	1.456396
3.772500	1.455440
3.773000	1.454803
3.773500	1.456714
3.774000	1.458307
3.774500	1.456714
3.775000	1.453848
3.775500	1.455759
3.776000	1.458944
3.776500	1.456396
3.777000	1.452573
3.777500	1.453848
3.778000	1.459263
3.778500	1.457670
3.779000	1.453848
3.779500	1.455122
3.780000	1.457352
3.780500	1.456396
3.781000	1.455759
3.781500	1.456077
3.782000	1.456077
3.782500	1.456077
3.783000	1.456714
3.783500	1.455759
3.784000	1.455440
3.784500	1.455440
3.785000	1.457033
3.785500	1.457033
3.786000	1.456077
3.786500	1.454166
3.787000	1.455759
3.787500	1.458944
3.788000	1.456714
3.788500	1.453848
3.789000	1.455440
3.789500	1.458944
3.790000	1.457670
3.790500	1.454166
3.791000	1.454803
3.791500	1.457352
3.792000	1.456714
3.792500	1.455440
3.793000	1.455440
3.793500	1.456714
3.794000	1.457670
3.794500	1.457989
3.795000	1.456077
3.795500	1.455759
3.796000	1.455759
3.796500	1.457033
3.797000	1.456714
3.797500	1.456714
3.798000	1.454803
3.798500	1.455759
3.799000	1.457670
3.799500	1.455440
3.800000	1.454166
3.800500	1.456077
3.801000	1.459581
3.801500	1.456714
3.802000	1.452892
3.802500	1.455122
3.803000	1.459263
3.803500	1.457033
3.804000	1.454166
3.804500	1.454803
3.805000	1.457670
3.805500	1.457033
3.806000	1.455759
3.806500	1.455759
3.807000	1.456396
3.807500	1.457033
3.808000	1.457989
3.808500	1.456714
3.809000	1.456077
3.809500	1.455759
3.810000	1.457670
3.810500	1.457033
3.811000	1.454803
3.811500	1.454803
3.812000	1.456077
3.812500	1.457989
3.813000	1.456077
3.813500	1.453211
3.814000	1.455759
3.814500	1.459900
3.815000	1.457670
3.815500	1.453848
3.816000	1.456077
3.816500	1.459900
3.817000	1.457989
3.817500	1.454803
3.818000	1.455122
3.818500	1.457670
3.819000	1.457033
3.819500	1.456714
3.820000	1.455759
3.820500	1.456714
3.821000	1.456714
3.821500	1.457033
3.822000	1.456396
3.822500	1.455759
3.823000	1.456396
3.823500	1.457352
3.824000	1.457670
3.824500	1.455122
3.825000	1.455122
3.825500	1.456714
3.826000	1.458626
3.826500	1.457352
3.827000	1.453529
3.827500	1.455759
3.828000	1.459900
3.828500	1.457352
3.829000	1.453848
3.829500	1.456396
3.830000	1.458944
3.830500	1.457352
3.831000	1.454803
3.831500	1.455440
3.832000	1.457352
3.832500	1.457033
3.833000	1.456714
3.833500	1.456714
3.834000	1.456077
3.834500	1.457352
3.835000	1.457989
3.835500	1.456077
3.836000	1.455759
3.836500	1.456714
3.837000	1.456714
3.837500	1.457989
3.838000	1.456077
3.838500	1.455440
3.839000	1.456396
3.839500	1.458307
3.840000	1.457352
3.840500	1.453529
3.841000	1.455759
3.841500	1.459581
3.842000	1.457670
3.842500	1.454485
3.843000	1.455440
3.843500	1.458307
3.844000	1.457352
3.844500	1.455759
3.845000	1.455759
3.845500	1.457989
3.846000	1.457033
3.846500	1.456714
3.847000	1.456714
3.847500	1.455759
3.848000	1.457033
3.848500	1.457352
3.849000	1.457033
3.849500	1.455440
3.850000	1.455440
3.850500	1.456714
3.851000	1.457989
3.851500	1.456714
3.852000	1.455122
3.852500	1.455440
3.853000	1.459263
3.853500	1.457352
3.854000	1.453211
3.854500	1.455440
3.855000	1.459900
3.855500	1.457352
3.856000	1.453848
3.856500	1.455122
3.857000	1.458944
3.857500	1.457033
3.858000	1.454803
3.858500	1.455440
3.859000	1.456714
3.859500	1.457670
3.860000	1.457352
3.860500	1.456396
3.861000	1.456077
3.861500	1.457352
3.862000	1.457352
3.862500	1.456714
3.863000	1.456077
3.863500	1.455122
3.864000	1.457033
3.864500	1.458626
3.865000	1.456396
3.865500	1.453848
3.866000	1.456077
3.866500	1.458944
3.867000	1.456714
3.867500	1.453529
3.868000	1.454485
3.868500	1.459263
3.869000	1.457033
3.869500	1.453211
3.870000	1.454166
3.870500	1.457670
3.871000	1.456077
3.871500	1.455759
3.872000	1.455440
3.872500	1.455759
3.873000	1.456714
3.873500	1.457352
3.874000	1.456396
3.874500	1.455440
3.875000	1.456077
3.875500	1.456714
3.876000	1.456714
3.876500	1.455440
3.877000	1.454803
3.877500	1.456714
3.878000	1.458626
3.878500	1.456077
3.879000	1.452892
3.879500	1.455759
3.880000	1.459263
3.880500	1.456714
3.881000	1.452255
3.881500	1.455122
3.882000	1.459263
3.882500	1.456714
3.883000	1.454803
3.883500	1.454166
3.884000	1.456077
3.884500	1.457033
3.885000	1.457033
3.885500	1.456396
3.886000	1.455440
3.886500	1.456714
3.887000	1.457033
3.887500	1.456714
3.888000	1.455122
3.888500	1.455759
3.889000	1.457352
3.889500	1.457352
3.890000	1.456077
3.890500	1.454803
3.891000	1.456714
3.891500	1.459263
3.892000	1.457033
3.892500	1.453211
3.893000	1.455440
3.893500	1.458944
3.894000	1.457033
3.894500	1.453848
3.895000	1.455122
3.895500	1.457670
3.896000	1.456714
3.896500	1.455122
3.897000	1.455122
3.897500	1.456396
3.898000	1.457352
3.898500	1.456077
3.899000	1.454803
3.899500	1.455759
3.900000	1.456077
3.900500	1.457033
3.901000	1.456077
3.901500	1.455440
3.902000	1.454803
3.902500	1.457033
3.903000	1.457670
3.903500	1.456077
3.904000	1.453848
3.904500	1.456077
3.905000	1.459581
3.905500	1.456396
3.906000	1.452573
3.906500	1.455440
3.907000	1.458944
3.907500	1.457670
3.908000	1.453211
3.908500	1.454803
3.909000	1.457352
3.909500	1.456714
3.910000	1.455122
3.910500	1.454803
3.911000	1.457033
3.911500	1.457033
3.912000	1.456396
3.912500	1.456077
3.913000	1.455122
3.913500	1.455759
3.914000	1.456714
3.914500	1.457033
3.915000	1.455440
3.915500	1.454485
3.916000	1.457033
3.916500	1.458944
3.917000	1.456077
3.917500	1.453848
3.918000	1.455759
3.918500	1.458944
3.919000	1.457670
3.919500	1.452892
3.920000	1.454803
3.920500	1.458944
3.921000	1.457352
3.921500	1.454485
3.922000	1.455440
3.922500	1.457352
3.923000	1.456714
3.923500	1.455759
3.924000	1.456077
3.924500	1.456077
3.925000	1.456714
3.925500	1.457670
3.926000	1.456714
3.926500	1.456077
3.927000	1.455122
3.927500	1.457352
3.928000	1.458307
3.928500	1.456396
3.929000	1.454485
3.929500	1.456396
3.930000	1.458626
3.930500	1.457670
3.931000	1.453211
3.931500	1.455759
3.932000	1.458307
3.932500	1.457670
3.933000	1.454485
3.933500	1.455440
3.934000	1.457989
3.934500	1.457989
3.935000	1.455759
3.935500	1.456714
3.936000	1.456396
3.936500	1.457670
3.937000	1.457352
3.937500	1.456396
3.938000	1.455122
3.938500	1.455759
3.939000	1.457670
3.939500	1.457033
3.940000	1.456077
3.940500	1.454485
3.941000	1.456396
3.941500	1.458307
3.942000	1.457033
3.942500	1.452892
3.943000	1.456077
3.943500	1.459263
3.944000	1.457670
3.944500	1.454166
3.945000	1.454485
3.945500	1.457989
3.946000	1.457352
3.946500	1.455759
3.947000	1.455122
3.947500	1.455440
3.948000	1.456396
3.948500	1.456714
3.949000	1.455759
3.949500	1.455122
3.950000	1.456077
3.950500	1.457352
3.951000	1.456396
3.951500	1.455440
3.952000	1.454166
3.952500	1.456077
3.953000	1.458626
3.953500	1.457352
3.954000	1.453211
3.954500	1.455122
3.955000	1.459900
3.955500	1.458307
3.956000	1.454485
3.956500	1.455122
3.957000	1.458626
3.957500	1.457352
3.958000	1.455122
3.958500	1.455759
3.959000	1.457033
3.959500	1.457352
3.960000	1.457352
3.960500	1.456714
3.961000	1.456077
3.961500	1.456714
3.962000	1.456396
3.962500	1.456077
3.963000	1.455440
3.963500	1.454803
3.964000	1.456714
3.964500	1.457989
3.965000	1.457033
3.965500	1.453211
3.966000	1.455440
3.966500	1.459263
3.967000	1.456714
3.967500	1.453211
3.968000	1.454803
3.968500	1.458626
3.969000	1.457670
3.969500	1.454485
3.970000	1.455440
3.970500	1.457989
3.971000	1.457352
3.971500	1.456077
3.972000	1.456396
3.972500	1.455759
3.973000	1.456714
3.973500	1.457033
3.974000	1.455759
3.974500	1.456077
3.975000	1.456396
3.975500	1.456714
3.976000	1.457989
3.976500	1.456396
3.977000	1.453848
3.977500	1.455122
3.978000	1.459263
3.978500	1.457033
3.979000	1.452573
3.979500	1.455759
3.980000	1.459263
3.980500	1.457989
3.981000	1.454485
3.981500	1.455440
3.982000	1.458626
3.982500	1.457989
3.983000	1.455759
3.983500	1.456077
3.984000	1.456396
3.984500	1.457033
3.985000	1.457033
3.985500	1.455759
3.986000	1.455759
3.986500	1.456714
3.987000	1.456714
3.987500	1.456077
3.988000	1.455759
3.988500	1.454485
3.989000	1.457670
3.989500	1.458626
3.990000	1.457352
3.990500	1.454485
3.991000	1.455440
3.991500	1.458944
3.992000	1.457352
3.992500	1.453529
3.993000	1.455759
3.993500	1.459900
3.994000	1.457989
3.994500	1.454803
3.995000	1.455759
3.995500	1.458307
3.996000	1.457352
3.996500	1.454803
3.997000	1.455759
3.997500	1.456077
3.998000	1.457033
3.998500	1.456714
3.999000	1.456396
3.999500	1.455122
4.000000	1.456077
4.000500	1.456396
4.001000	1.458307
4.001500	1.456077
4.002000	1.454166
4.002500	1.455759
4.003000	1.459900
4.003500	1.456077
4.004000	1.453848
4.004500	1.455440
4.005000	1.459263
4.005500	1.455759
4.006000	1.453529
4.006500	1.455122
4.007000	1.458307
4.007500	1.457670
4.008000	1.454803
4.008500	1.456396
4.009000	1.457352
4.009500	1.457033
4.010000	1.457989
4.010500	1.456714
4.011000	1.456714
4.011500	1.456714
4.012000	1.457352
4.012500	1.457352
4.013000	1.457033
4.013500	1.456077
4.014000	1.457033
4.014500	1.459581
4.015000	1.456396
4.015500	1.454166
4.016000	1.456077
4.016500	1.459900
4.017000	1.457670
4.017500	1.454166
4.018000	1.455122
4.018500	1.458944
4.019000	1.457033
4.019500	1.454485
4.020000	1.456077
4.020500	1.457670
4.021000	1.456714
4.021500	1.456077
4.022000	1.456396
4.022500	1.455440
4.023000	1.457670
4.023500	1.457352
4.024000	1.456714
4.024500	1.455122
4.025000	1.456714
4.025500	1.456714
4.026000	1.457670
4.026500	1.455122
4.027000	1.454803
4.027500	1.456714
4.028000	1.458307
4.028500	1.456077
4.029000	1.452892
4.029500	1.455759
4.030000	1.460218
4.030500	1.457033
4.031000	1.453529
4.031500	1.454485
4.032000	1.458944
4.032500	1.457352
4.033000	1.454166
4.033500	1.454803
4.034000	1.457352
4.034500	1.456077
4.035000	1.454803
4.035500	1.455122
4.036000	1.456714
4.036500	1.455759
4.037000	1.455440
4.037500	1.456077
4.038000	1.454803
4.038500	1.455440
4.039000	1.457352
4.039500	1.457352
4.040000	1.456077
4.040500	1.455440
4.041000	1.456396
4.041500	1.457989
4.042000	1.456714
4.042500	1.453848
4.043000	1.455440
4.043500	1.459581
4.044000	1.457352
4.044500	1.452573
4.045000	1.454803
4.045500	1.459263
4.046000	1.457352
4.046500	1.454166
4.047000	1.455440
4.047500	1.457352
4.048000	1.457033
4.048500	1.456396
4.049000	1.455759
4.049500	1.455440
4.050000	1.456077
4.050500	1.457670
4.051000	1.456396
4.051500	1.455440
4.052000	1.456077
4.052500	1.456396
4.053000	1.457670
4.053500	1.455759
4.054000	1.454485
4.054500	1.456077
4.055000	1.458626
4.055500	1.456077
4.056000	1.454166
4.056500	1.455759
4.057000	1.459581
4.057500	1.457352
4.058000	1.453211
4.058500	1.454803
4.059000	1.457989
4.059500	1.457352
4.060000	1.454166
4.060500	1.454803
4.061000	1.456396
4.061500	1.456714
4.062000	1.456396
4.062500	1.456077
4.063000	1.455440
4.063500	1.456396
4.064000	1.457352
4.064500	1.456077
4.065000	1.456077
4.065500	1.455440
4.066000	1.457352
4.066500	1.457670
4.067000	1.456396
4.067500	1.454803
4.068000	1.456077
4.068500	1.459263
4.069000	1.457033
4.069500	1.453529
4.070000	1.455759
4.070500	1.459263
4.071000	1.457033
4.071500	1.454166
4.072000	1.455440
4.072500	1.458307
4.073000	1.457352
4.073500	1.455122
4.074000	1.455440
4.074500	1.456077
4.075000	1.456396
4.075500	1.457352
4.076000	1.456077
4.076500	1.455122
4.077000	1.455440
4.077500	1.456714
4.078000	1.456714
4.078500	1.455122
4.079000	1.454485
4.079500	1.456714
4.080000	1.458626
4.080500	1.456714
4.081000	1.454485
4.081500	1.456077
4.082000	1.460218
4.082500	1.457352
4.083000	1.453529
4.083500	1.454803
4.084000	1.459581
4.084500	1.457989
4.085000	1.455122
4.085500	1.455122
4.086000	1.457033
4.086500	1.457033
4.087000	1.456396
4.087500	1.455759
4.088000	1.456077
4.088500	1.457033
4.089000	1.457033
4.089500	1.456396
4.090000	1.455759
4.090500	1.455122
4.091000	1.456396
4.091500	1.458307
4.092000	1.456396
4.092500	1.454166
4.093000	1.456396
4.093500	1.458944
4.094000	1.456714
4.094500	1.453848
4.095000	1.454803
4.095500	1.459263
4.096000	1.457033
4.096500	1.454803
4.097000	1.454803
4.097500	1.457670
4.098000	1.457670
4.098500	1.455122
4.099000	1.455440
4.099500	1.456077
4.100000	1.456714
4.100500	1.457033
4.101000	1.455440
4.101500	1.455122
4.102000	1.455122
4.102500	1.456396
4.103000	1.457033
4.103500	1.455759
4.104000	1.454803
4.104500	1.455759
4.105000	1.458626
4.105500	1.456077
4.106000	1.453848
4.106500	1.454803
4.107000	1.459263
4.107500	1.457352
4.108000	1.453529
4.108500	1.455122
4.109000	1.457670
4.109500	1.456714
4.110000	1.454485
4.110500	1.455440
4.111000	1.456396
4.111500	1.456077
4.112000	1.456077
4.112500	1.454803
4.113000	1.454485
4.113500	1.455440
4.114000	1.457033
4.114500	1.456396
4.115000	1.455759
4.115500	1.455122
4.116000	1.455440
4.116500	1.458944
4.117000	1.455440
4.117500	1.453211
4.118000	1.455440
4.118500	1.458307
4.119000	1.457670
4.119500	1.453848
4.120000	1.454803
4.120500	1.458944
4.121000	1.457033
4.121500	1.454803
4.122000	1.455759
4.122500	1.456714
4.123000	1.457033
4.123500	1.456396
4.124000	1.455759
4.124500	1.455440
4.125000	1.456714
4.125500	1.457033
4.126000	1.456077
4.126500	1.455759
4.127000	1.454803
4.127500	1.456396
4.128000	1.457670
4.128500	1.455440
4.129000	1.452892
4.129500	1.455440
4.130000	1.458626
4.130500	1.456077
4.131000	1.452255
4.131500	1.454803
4.132000	1.458626
4.132500	1.457033
4.133000	1.453529
4.133500	1.455759
4.134000	1.457670
4.134500	1.456396
4.135000	1.455122
4.135500	1.455759
4.136000	1.456077
4.136500	1.456714
4.137000	1.456714
4.137500	1.456077
4.138000	1.455122
4.138500	1.456396
4.139000	1.457033
4.139500	1.457352
4.140000	1.455759
4.140500	1.455759
4.141000	1.456396
4.141500	1.458944
4.142000	1.456714
4.142500	1.453529
4.143000	1.456396
4.143500	1.459263
4.144000	1.457352
4.144500	1.453529
4.145000	1.455440
4.145500	1.458626
4.146000	1.457989
4.146500	1.455440
4.147000	1.455122
4.147500	1.456714
4.148000	1.456714
4.148500	1.456396
4.149000	1.456077
4.149500	1.456396
4.150000	1.456077
4.150500	1.457352
4.151000	1.456396
4.151500	1.455440
4.152000	1.456077
4.152500	1.456077
4.153000	1.457989
4.153500	1.456714
4.154000	1.454803
4.154500	1.455759
4.155000	1.458944
4.155500	1.457033
4.156000	1.454485
4.156500	1.456396
4.157000	1.459581
4.157500	1.458307
4.158000	1.453848
4.158500	1.455122
4.159000	1.458307
4.159500	1.457989
4.160000	1.455122
4.160500	1.455122
4.161000	1.456396
4.161500	1.456714
4.162000	1.457033
4.162500	1.456396
4.163000	1.456396
4.163500	1.456396
4.164000	1.457352
4.164500	1.457352
4.165000	1.457033
4.165500	1.455122
4.166000	1.456396
4.166500	1.458626
4.167000	1.456714
4.167500	1.452892
4.168000	1.456077
4.168500	1.459263
4.169000	1.457033
4.169500	1.453211
4.170000	1.456077
4.170500	1.458944
4.171000	1.457670
4.171500	1.454803
4.172000	1.455440
4.172500	1.457670
4.173000	1.456714
4.173500	1.456077
4.174000	1.455759
4.174500	1.456077
4.175000	1.457033
4.175500	1.456396
4.176000	1.456714
4.176500	1.455759
4.177000	1.456396
4.177500	1.457352
4.178000	1.457352
4.178500	1.454803
4.179000	1.455440
4.179500	1.456396
4.180000	1.459263
4.180500	1.457352
4.181000	1.453211
4.181500	1.455440
4.182000	1.459581
4.182500	1.457352
4.183000	1.453211
4.183500	1.454803
4.184000	1.458944
4.184500	1.457352
4.185000	1.455122
4.185500	1.455122
4.186000	1.457033
4.186500	1.457352
4.187000	1.456077
4.187500	1.455440
4.188000	1.455122
4.188500	1.457033
4.189000	1.457033
4.189500	1.457670
4.190000	1.456396
4.190500	1.456714
4.191000	1.457033
4.191500	1.458626
4.192000	1.456714
4.192500	1.454803
4.193000	1.457033
4.193500	1.460218
4.194000	1.457352
4.194500	1.454166
4.195000	1.455122
4.195500	1.459581
4.196000	1.457989
4.196500	1.454166
4.197000	1.456077
4.197500	1.458307
4.198000	1.457033
4.198500	1.455440
4.199000	1.456077
4.199500	1.456077
4.200000	1.456714
4.200500	1.457033
4.201000	1.456714
4.201500	1.456396
4.202000	1.456396
4.202500	1.457352
4.203000	1.457033
4.203500	1.456077
4.204000	1.455122
4.204500	1.457033
4.205000	1.459263
4.205500	1.456714
4.206000	1.453529
4.206500	1.455440
4.207000	1.459581
4.207500	1.458307
4.208000	1.454166
4.208500	1.454803
4.209000	1.459581
4.209500	1.457989
4.210000	1.455122
4.210500	1.454803
4.211000	1.458307
4.211500	1.458944
4.212000	1.456077
4.212500	1.455440
4.213000	1.455759
4.213500	1.456714
4.214000	1.456714
4.214500	1.456714
4.215000	1.456077
4.215500	1.456396
4.216000	1.456714
4.216500	1.457352
4.217000	1.456714
4.217500	1.455122
4.218000	1.456396
4.218500	1.457670
4.219000	1.456714
4.219500	1.453848
4.220000	1.455759
4.220500	1.459900
4.221000	1.457352
4.221500	1.453211
4.222000	1.455759
4.222500	1.459581
4.223000	1.457989
4.223500	1.454166
4.224000	1.455122
4.224500	1.458626
4.225000	1.457989
4.225500	1.454803
4.226000	1.455440
4.226500	1.457033
4.227000	1.457033
4.227500	1.457352
4.228000	1.455759
4.228500	1.456077
4.229000	1.457033
4.229500	1.457352
4.230000	1.457033
4.230500	1.456077
4.231000	1.455440
4.231500	1.456396
4.232000	1.458626
4.232500	1.457033
4.233000	1.453848
4.233500	1.456714
4.234000	1.460218
4.234500	1.457033
4.235000	1.454485
4.235500	1.456077
4.236000	1.458944
4.236500	1.457670
4.237000	1.455440
4.237500	1.455759
4.238000	1.456714
4.238500	1.457033
4.239000	1.457033
4.239500	1.455759
4.240000	1.457033
4.240500	1.457033
4.241000	1.457352
4.241500	1.457033
4.242000	1.456077
4.242500	1.456396
4.243000	1.457033
4.243500	1.457670
4.244000	1.456714
4.244500	1.454803
4.245000	1.456714
4.245500	1.458944
4.246000	1.457352
4.246500	1.453529
4.247000	1.455440
4.247500	1.459263
4.248000	1.457352
4.248500	1.453529
4.249000	1.456077
4.249500	1.458307
4.250000	1.457033
4.250500	1.456714
4.251000	1.455440
4.251500	1.456077
4.252000	1.456714
4.252500	1.457670
4.253000	1.456077
4.253500	1.456714
4.254000	1.456714
4.254500	1.457033
4.255000	1.458307
4.255500	1.456077
4.256000	1.455759
4.256500	1.457033
4.257000	1.459263
4.257500	1.456396
4.258000	1.453848
4.258500	1.455440
4.259000	1.459900
4.259500	1.456714
4.260000	1.453529
4.260500	1.455122
4.261000	1.459581
4.261500	1.457989
4.262000	1.454485
4.262500	1.455759
4.263000	1.457989
4.263500	1.457033
4.264000	1.456077
4.264500	1.456077
4.265000	1.456714
4.265500	1.456714
4.266000	1.457670
4.266500	1.456077
4.267000	1.455440
4.267500	1.456077
4.268000	1.457352
4.268500	1.457352
4.269000	1.455759
4.269500	1.454803
4.270000	1.456077
4.270500	1.459263
4.271000	1.456714
4.271500	1.453848
4.272000	1.455759
4.272500	1.459263
4.273000	1.456396
4.273500	1.453848
4.274000	1.455759
4.274500	1.458307
4.275000	1.457989
4.275500	1.455759
4.276000	1.455759
4.276500	1.457352
4.277000	1.457352
4.277500	1.456077
4.278000	1.456396
4.278500	1.455122
4.279000	1.456396
4.279500	1.457670
4.280000	1.456714
4.280500	1.455440
4.281000	1.455440
4.281500	1.457670
4.282000	1.458626
4.282500	1.456396
4.283000	1.454803
4.283500	1.456077
4.284000	1.459581
4.284500	1.457670
4.285000	1.453848
4.285500	1.455122
4.286000	1.459581
4.286500	1.457352
4.287000	1.454485
4.287500	1.455440
4.288000	1.457352
4.288500	1.457670
4.289000	1.456396
4.289500	1.456077
4.290000	1.456077
4.290500	1.456396
4.291000	1.457670
4.291500	1.456714
4.292000	1.456077
4.292500	1.456714
4.293000	1.457033
4.293500	1.457989
4.294000	1.456077
4.294500	1.455440
4.295000	1.456714
4.295500	1.458944
4.296000	1.457352
4.296500	1.453211
4.297000	1.455440
4.297500	1.459263
4.298000	1.457352
4.298500	1.454166
4.299000	1.456077
4.299500	1.458626
4.300000	1.457352
4.300500	1.454803
4.301000	1.456396
4.301500	1.457033
4.302000	1.457033
4.302500	1.456714
4.303000	1.457033
4.303500	1.456396
4.304000	1.456077
4.304500	1.457033
4.305000	1.457033
4.305500	1.456396
4.306000	1.455759
4.306500	1.457352
4.307000	1.459900
4.307500	1.456396
4.308000	1.454166
4.308500	1.456396
4.309000	1.459581
4.309500	1.457670
4.310000	1.453848
4.310500	1.455122
4.311000	1.459581
4.311500	1.457989
4.312000	1.455440
4.312500	1.455440
4.313000	1.457352
4.313500	1.457033
4.314000	1.456396
4.314500	1.456077
4.315000	1.456714
4.315500	1.456714
4.316000	1.457670
4.316500	1.455759
4.317000	1.455759
4.317500	1.455440
4.318000	1.457033
4.318500	1.458307
4.319000	1.455759
4.319500	1.454166
4.320000	1.455440
4.320500	1.459263
4.321000	1.457033
4.321500	1.453211
4.322000	1.454803
4.322500	1.458626
4.323000	1.457670
4.323500	1.453848
4.324000	1.455122
4.324500	1.457033
4.325000	1.457670
4.325500	1.456077
4.326000	1.455122
4.326500	1.455759
4.327000	1.456714
4.327500	1.457033
4.328000	1.456714
4.328500	1.455440
4.329000	1.455759
4.329500	1.457033
4.330000	1.457670
4.330500	1.456396
4.331000	1.455122
4.331500	1.456077
4.332000	1.458944
4.332500	1.457033
4.333000	1.453848
4.333500	1.455759
4.334000	1.459900
4.334500	1.457989
4.335000	1.453848
4.335500	1.454803
4.336000	1.457989
4.336500	1.457033
4.337000	1.457033
4.337500	1.456396
4.338000	1.457033
4.338500	1.456714
4.339000	1.457033
4.339500	1.457033
4.340000	1.456396
4.340500	1.455759
4.341000	1.457989
4.341500	1.457352
4.342000	1.456077
4.342500	1.455122
4.343000	1.456396
4.343500	1.458944
4.344000	1.456714
4.344500	1.453848
4.345000	1.455122
4.345500	1.459581
4.346000	1.457989
4.346500	1.453848
4.347000	1.455122
4.347500	1.459263
4.348000	1.457989
4.348500	1.455122
4.349000	1.455759
4.349500	1.457352
4.350000	1.457352
4.350500	1.457352
4.351000	1.455759
4.351500	1.455122
4.352000	1.455440
4.352500	1.457670
4.353000	1.456396
4.353500	1.456396
4.354000	1.455759
4.354500	1.456714
4.355000	1.458626
4.355500	1.456396
4.356000	1.453211
4.356500	1.456077
4.357000	1.459900
4.357500	1.457670
4.358000	1.453211
4.358500	1.454803
4.359000	1.459581
4.359500	1.457670
4.360000	1.454803
4.360500	1.455440
4.361000	1.457989
4.361500	1.457670
4.362000	1.455759
4.362500	1.455759
4.363000	1.456077
4.363500	1.457352
4.364000	1.457352
4.364500	1.456396
4.365000	1.455759
4.365500	1.455759
4.366000	1.457989
4.366500	1.457033
4.367000	1.456714
4.367500	1.455122
4.368000	1.457033
4.368500	1.459263
4.369000	1.456714
4.369500	1.453848
4.370000	1.456396
4.370500	1.459900
4.371000	1.458307
4.371500	1.454803
4.372000	1.455440
4.372500	1.459263
4.373000	1.457670
4.373500	1.454803
4.374000	1.455759
4.374500	1.457670
4.375000	1.457352
4.375500	1.456714
4.376000	1.456396
4.376500	1.454803
4.377000	1.457352
4.377500	1.457033
4.378000	1.456077
4.378500	1.455122
4.379000	1.455122
4.379500	1.456714
4.380000	1.457989
4.380500	1.456077
4.381000	1.453848
4.381500	1.455440
4.382000	1.459263
4.382500	1.457033
4.383000	1.452573
4.383500	1.454803
4.384000	1.458944
4.384500	1.456396
4.385000	1.454166
4.385500	1.455122
4.386000	1.457670
4.386500	1.456714
4.387000	1.455759
4.387500	1.455440
4.388000	1.456396
4.388500	1.456077
4.389000	1.456714
4.389500	1.455440
4.390000	1.454166
4.390500	1.455759
4.391000	1.456396
4.391500	1.457352
4.392000	1.455759
4.392500	1.453529
4.393000	1.456077
4.393500	1.459263
4.394000	1.457033
4.394500	1.453848
4.395000	1.454803
4.395500	1.459581
4.396000	1.456714
4.396500	1.453211
4.397000	1.454166
4.397500	1.458944
4.398000	1.457989
4.398500	1.455759
4.399000	1.454803
4.399500	1.456396
4.400000	1.456077
4.400500	1.457033
4.401000	1.455759
4.401500	1.456396
4.402000	1.457033
4.402500	1.457352
4.403000	1.457352
4.403500	1.454803
4.404000	1.455122
4.404500	1.456714
4.405000	1.458626
4.405500	1.456077
4.406000	1.453211
4.406500	1.455440
4.407000	1.459581
4.407500	1.457033
4.408000	1.453211
4.408500	1.455122
4.409000	1.457989
4.409500	1.456714
4.410000	1.454166
4.410500	1.455440
4.411000	1.457670
4.411500	1.457670
4.412000	1.456077
4.412500	1.455759
4.413000	1.455440
4.413500	1.456396
4.414000	1.457033
4.414500	1.456396
4.415000	1.455759
4.415500	1.455759
4.416000	1.457033
4.416500	1.457670
4.417000	1.456077
4.417500	1.454485
4.418000	1.456396
4.418500	1.457989
4.419000	1.456077
4.419500	1.453211
4.420000	1.455440
4.420500	1.459263
4.421000	1.457033
4.421500	1.453529
4.422000	1.454803
4.422500	1.457670
4.423000	1.457033
4.423500	1.456077
4.424000	1.455759
4.424500	1.457033
4.425000	1.457033
4.425500	1.456714
4.426000	1.455440
4.426500	1.455122
4.427000	1.456396
4.427500	1.457352
4.428000	1.456714
4.428500	1.455759
4.429000	1.454485
4.429500	1.456714
4.430000	1.457033
4.430500	1.456077
4.431000	1.454485
4.431500	1.456077
4.432000	1.459581
4.432500	1.456714
4.433000	1.453529
4.433500	1.454803
4.434000	1.458944
4.434500	1.457352
4.435000	1.455122
4.435500	1.455759
4.436000	1.457670
4.436500	1.457033
4.437000	1.455759
4.437500	1.455122
4.438000	1.456077
4.438500	1.456396
4.439000	1.456077
4.439500	1.456077
4.440000	1.454803
4.440500	1.455122
4.441000	1.456714
4.441500	1.457352
4.442000	1.456077
4.442500	1.454803
4.443000	1.456396
4.443500	1.458626
4.444000	1.456077
4.444500	1.453848
4.445000	1.455122
4.445500	1.459581
4.446000	1.457989
4.446500	1.453529
4.447000	1.454803
4.447500	1.458307
4.448000	1.457989
4.448500	1.455122
4.449000	1.455759
4.449500	1.457670
4.450000	1.457033
4.450500	1.456077
4.451000	1.456714
4.451500	1.455759
4.452000	1.456714
4.452500	1.457670
4.453000	1.456714
4.453500	1.455440
4.454000	1.455440
4.454500	1.456714
4.455000	1.457989
4.455500	1.455440
4.456000	1.454485
4.456500	1.456714
4.457000	1.458944
4.457500	1.456714
4.458000	1.452892
4.458500	1.454803
4.459000	1.459900
4.459500	1.456714
4.460000	1.452892
4.460500	1.455440
4.461000	1.457989
4.461500	1.456396
4.462000	1.454803
4.462500	1.455440
4.463000	1.456396
4.463500	1.456714
4.464000	1.456714
4.464500	1.456396
4.465000	1.456077
4.465500	1.456396
4.466000	1.457033
4.466500	1.457033
4.467000	1.456396
4.467500	1.454803
4.468000	1.456396
4.468500	1.457352
4.469000	1.456077
4.469500	1.454166
4.470000	1.456077
4.470500	1.458944
4.471000	1.457352
4.471500	1.453848
4.472000	1.454803
4.472500	1.459581
4.473000	1.457033
4.473500	1.454166
4.474000	1.455440
4.474500	1.458944
4.475000	1.457033
4.475500	1.454803
4.476000	1.455122
4.476500	1.456714
4.477000	1.457670
4.477500	1.455759
4.478000	1.455759
4.478500	1.456077
4.479000	1.456396
4.479500	1.456714
4.480000	1.456077
4.480500	1.455440
4.481000	1.455440
4.481500	1.456714
4.482000	1.457670
4.482500	1.456714
4.483000	1.453529
4.483500	1.455759
4.484000	1.459900
4.484500	1.457033
4.485000	1.452892
4.485500	1.455440
4.486000	1.458944
4.486500	1.457033
4.487000	1.454166
4.487500	1.455759
4.488000	1.457670
4.488500	1.456714
4.489000	1.454803
4.489500	1.455122
4.490000	1.456714
4.490500	1.456714
4.491000	1.456714
4.491500	1.455759
4.492000	1.454485
4.492500	1.456396
4.493000	1.457352
4.493500	1.456396
4.494000	1.454803
4.494500	1.454803
4.495000	1.455759
4.495500	1.458626
4.496000	1.456714
4.496500	1.453529
4.497000	1.455440
4.497500	1.458944
4.498000	1.457670
4.498500	1.454166
4.499000	1.454485
4.499500	1.458944
4.500000	1.457033
4.500500	1.456396
4.501000	1.455440
4.501500	1.456396
4.502000	1.457033
4.502500	1.455759
4.503000	1.456077
4.503500	1.456077
4.504000	1.456396
4.504500	1.456714
4.505000	1.456077
4.505500	1.455759
4.506000	1.455759
4.506500	1.457033
4.507000	1.457352
4.507500	1.455759
4.508000	1.454485
4.508500	1.456077
4.509000	1.460218
4.509500	1.457352
4.510000	1.453848
4.510500	1.455440
4.511000	1.459581
4.511500	1.457352
4.512000	1.453848
4.512500	1.455759
4.513000	1.458307
4.513500	1.457352
4.514000	1.455122
4.514500	1.455759
4.515000	1.457033
4.515500	1.456714
4.516000	1.456396
4.516500	1.456077
4.517000	1.455122
4.517500	1.455440
4.518000	1.457352
4.518500	1.456714
4.519000	1.456077
4.519500	1.454485
4.520000	1.455440
4.520500	1.459263
4.521000	1.457670
4.521500	1.452892
4.522000	1.455759
4.522500	1.459581
4.523000	1.457989
4.523500	1.454485
4.524000	1.455440
4.524500	1.458307
4.525000	1.457989
4.525500	1.455122
4.526000	1.456077
4.526500	1.457033
4.527000	1.456714
4.527500	1.457352
4.528000	1.456396
4.528500	1.456077
4.529000	1.455759
4.529500	1.457670
4.530000	1.457033
4.530500	1.455759
4.531000	1.454803
4.531500	1.456396
4.532000	1.458626
4.532500	1.457033
4.533000	1.454166
4.533500	1.455759
4.534000	1.458626
4.534500	1.456714
4.535000	1.454166
4.535500	1.455759
4.536000	1.458626
4.536500	1.457352
4.537000	1.455122
4.537500	1.455122
4.538000	1.456714
4.538500	1.458626
4.539000	1.456714
4.539500	1.455440
4.540000	1.455759
4.540500	1.456396
4.541000	1.456714
4.541500	1.456077
4.542000	1.455759
4.542500	1.455440
4.543000	1.457033
4.543500	1.457989
4.544000	1.456396
4.544500	1.453848
4.545000	1.456077
4.545500	1.459900
4.546000	1.457033
4.546500	1.453211
4.547000	1.455440
4.547500	1.459581
4.548000	1.457989
4.548500	1.454485
4.549000	1.455440
4.549500	1.456714
4.550000	1.457670
4.550500	1.456714
4.551000	1.456077
4.551500	1.455759
4.552000	1.457670
4.552500	1.457352
4.553000	1.457033
4.553500	1.455440
4.554000	1.456396
4.554500	1.457989
4.555000	1.457670
4.555500	1.455759
4.556000	1.454803
4.556500	1.456714
4.557000	1.459581
4.557500	1.457352
4.558000	1.453848
4.558500	1.456077
4.559000	1.459263
4.559500	1.457352
4.560000	1.453529
4.560500	1.455122
4.561000	1.458626
4.561500	1.457352
4.562000	1.455440
4.562500	1.455440
4.563000	1.456396
4.563500	1.456396
4.564000	1.457989
4.564500	1.455440
4.565000	1.456396
4.565500	1.455759
4.566000	1.456396
4.566500	1.457670
4.567000	1.455759
4.567500	1.454803
4.568000	1.456396
4.568500	1.458307
4.569000	1.456396
4.569500	1.453211
4.570000	1.455440
4.570500	1.459900
4.571000	1.457033
4.571500	1.454485
4.572000	1.455122
4.572500	1.458944
4.573000	1.457352
4.573500	1.455440
4.574000	1.456077
4.574500	1.456714
4.575000	1.456714
4.575500	1.456396
4.576000	1.456714
4.576500	1.456396
4.577000	1.456077
4.577500	1.457033
4.578000	1.456714
4.578500	1.455440
4.579000	1.455759
4.579500	1.457033
4.580000	1.457989
4.580500	1.455759
4.581000	1.454166
4.581500	1.455759
4.582000	1.459263
4.582500	1.457033
4.583000	1.453529
4.583500	1.455440
4.584000	1.459263
4.584500	1.457670
4.585000	1.453848
4.585500	1.455122
4.586000	1.457989
4.586500	1.457670
4.587000	1.455440
4.587500	1.455440
4.588000	1.455440
4.588500	1.456714
4.589000	1.457670
4.589500	1.456077
4.590000	1.455759
4.590500	1.456396
4.591000	1.456396
4.591500	1.457033
4.592000	1.455759
4.592500	1.455122
4.593000	1.455440
4.593500	1.458307
4.594000	1.456396
4.594500	1.452573
4.595000	1.455122
4.595500	1.459900
4.596000	1.456714
4.596500	1.452892
4.597000	1.454485
4.597500	1.458307
4.598000	1.457670
4.598500	1.455440
4.599000	1.455440
4.599500	1.457033
4.600000	1.457033
4.600500	1.457033
4.601000	1.455440
4.601500	1.455440
4.602000	1.456077
4.602500	1.456396
4.603000	1.457033
4.603500	1.455122
4.604000	1.454803
4.604500	1.456714
4.605000	1.459263
4.605500	1.456396
4.606000	1.453848
4.606500	1.455759
4.607000	1.459900
4.607500	1.457352
4.608000	1.453211
4.608500	1.455440
4.609000	1.459900
4.609500	1.457989
4.610000	1.454485
4.610500	1.455440
4.611000	1.457352
4.611500	1.457989
4.612000	1.456396
4.612500	1.455759
4.613000	1.455440
4.613500	1.456077
4.614000	1.456714
4.614500	1.456077
4.615000	1.455759
4.615500	1.456077
4.616000	1.457352
4.616500	1.457989
4.617000	1.457033
4.617500	1.454166
4.618000	1.456396
4.618500	1.458626
4.619000	1.457033
4.619500	1.453848
4.620000	1.454803
4.620500	1.459900
4.621000	1.457352
4.621500	1.454166
4.622000	1.455440
4.622500	1.457670
4.623000	1.457352
4.623500	1.455440
4.624000	1.455759
4.624500	1.456714
4.625000	1.457033
4.625500	1.457033
4.626000	1.456396
4.626500	1.454803
4.627000	1.457033
4.627500	1.457352
4.628000	1.457033
4.628500	1.455759
4.629000	1.456077
4.629500	1.457670
4.630000	1.458307
4.630500	1.456396
4.631000	1.453529
4.631500	1.455759
4.632000	1.459263
4.632500	1.457352
4.633000	1.452892
4.633500	1.455759
4.634000	1.459263
4.634500	1.458307
4.635000	1.453848
4.635500	1.454803
4.636000	1.457352
4.636500	1.457989
4.637000	1.456714
4.637500	1.456714
4.638000	1.455759
4.638500	1.457033
4.639000	1.457989
4.639500	1.456396
4.640000	1.455759
4.640500	1.456396
4.641000	1.457670
4.641500	1.457670
4.642000	1.456714
4.642500	1.455122
4.643000	1.456714
4.643500	1.458307
4.644000	1.457033
4.644500	1.454166
4.645000	1.456077
4.645500	1.459900
4.646000	1.457989
4.646500	1.454485
4.647000	1.455759
4.647500	1.459263
4.648000	1.457352
4.648500	1.455440
4.649000	1.455440
4.649500	1.457670
4.650000	1.457033
4.650500	1.456396
4.651000	1.456396
4.651500	1.455759
4.652000	1.457033
4.652500	1.457352
4.653000	1.457033
4.653500	1.456077
4.654000	1.455759
4.654500	1.457670
4.655000	1.457989
4.655500	1.456714
4.656000	1.454485
4.656500	1.456714
4.657000	1.459900
4.657500	1.457989
4.658000	1.453848
4.658500	1.455759
4.659000	1.459581
4.659500	1.457033
4.660000	1.454803
4.660500	1.456077
4.661000	1.458944
4.661500	1.456714
4.662000	1.456396
4.662500	1.456077
4.663000	1.456714
4.663500	1.456714
4.664000	1.457352
4.664500	1.455440
4.665000	1.454803
4.665500	1.455759
4.666000	1.456714
4.666500	1.457033
4.667000	1.456714
4.667500	1.455122
4.668000	1.456396
4.668500	1.458307
4.669000	1.457033
4.669500	1.454803
4.670000	1.456396
4.670500	1.459581
4.671000	1.457670
4.671500	1.453211
4.672000	1.455440
4.672500	1.459263
4.673000	1.457670
4.673500	1.454166
4.674000	1.455440
4.674500	1.457670
4.675000	1.457033
4.675500	1.456396
4.676000	1.456396
4.676500	1.455759
4.677000	1.456714
4.677500	1.456714
4.678000	1.456714
4.678500	1.455759
4.679000	1.456396
4.679500	1.457352
4.680000	1.457352
4.680500	1.456714
4.681000	1.453848
4.681500	1.456714
4.682000	1.458626
4.682500	1.457033
4.683000	1.452892
4.683500	1.454803
4.684000	1.459581
4.684500	1.457989
4.685000	1.454485
4.685500	1.455759
4.686000	1.458626
4.686500	1.457352
4.687000	1.455440
4.687500	1.455759
4.688000	1.456396
4.688500	1.457670
4.689000	1.457989
4.689500	1.456396
4.690000	1.454803
4.690500	1.456714
4.691000	1.458307
4.691500	1.457033
4.692000	1.456396
4.692500	1.455759
4.693000	1.456077
4.693500	1.458944
4.694000	1.456396
4.694500	1.454166
4.695000	1.456077
4.695500	1.458944
4.696000	1.457989
4.696500	1.453529
4.697000	1.455440
4.697500	1.458307
4.698000	1.457670
4.698500	1.454485
4.699000	1.454803
4.699500	1.456714
4.700000	1.457352
4.700500	1.456714
4.701000	1.455440
4.701500	1.456077
4.702000	1.455759
4.702500	1.457033
4.703000	1.456714
4.703500	1.455122
4.704000	1.456077
4.704500	1.456396
4.705000	1.457989
4.705500	1.455440
4.706000	1.453848
4.706500	1.456077
4.707000	1.458944
4.707500	1.456714
4.708000	1.453211
4.708500	1.454803
4.709000	1.458626
4.709500	1.456714
4.710000	1.453529
4.710500	1.455122
4.711000	1.457670
4.711500	1.457670
4.712000	1.455440
4.712500	1.456396
4.713000	1.456396
4.713500	1.455759
4.714000	1.457989
4.714500	1.456714
4.715000	1.456077
4.715500	1.456396
4.716000	1.457670
4.716500	1.457670
4.717000	1.456077
4.717500	1.454485
4.718000	1.457352
4.718500	1.458307
4.719000	1.455759
4.719500	1.453848
4.720000	1.455759
4.720500	1.459581
4.721000	1.457352
4.721500	1.453211
4.722000	1.455122
4.722500	1.458626
4.723000	1.457033
4.723500	1.453529
4.724000	1.454485
4.724500	1.457670
4.725000	1.457033
4.725500	1.456077
4.726000	1.455440
4.726500	1.456077
4.727000	1.456077
4.727500	1.456077
4.728000	1.455759
4.728500	1.455759
4.729000	1.455759
4.729500	1.457033
4.730000	1.456714
4.730500	1.455440
4.731000	1.453848
4.731500	1.455122
4.732000	1.458307
4.732500	1.456714
4.733000	1.453211
4.733500	1.456077
4.734000	1.459581
4.734500	1.457033
4.735000	1.453848
4.735500	1.454485
4.736000	1.458307
4.736500	1.457989
4.737000	1.454803
4.737500	1.455122
4.738000	1.456396
4.738500	1.456396
4.739000	1.456714
4.739500	1.456077
4.740000	1.454803
4.740500	1.456077
4.741000	1.457670
4.741500	1.456396
4.742000	1.455440
4.742500	1.454485
4.743000	1.455759
4.743500	1.458307
4.744000	1.456077
4.744500	1.453529
4.745000	1.456396
4.745500	1.459263
4.746000	1.458307
4.746500	1.453211
4.747000	1.455440
4.747500	1.459263
4.748000	1.456714
4.748500	1.454485
4.749000	1.454803
4.749500	1.457989
4.750000	1.457352
4.750500	1.455122
4.751000	1.455440
4.751500	1.456396
4.752000	1.456396
4.752500	1.456714
4.753000	1.455440
4.753500	1.454803
4.754000	1.456077
4.754500	1.456714
4.755000	1.457033
4.755500	1.455440
4.756000	1.454803
4.756500	1.456077
4.757000	1.457989
4.757500	1.457352
4.758000	1.453848
4.758500	1.454803
4.759000	1.459263
4.759500	1.457352
4.760000	1.452892
4.760500	1.454803
4.761000	1.458626
4.761500	1.457352
4.762000	1.454166
4.762500	1.455440
4.763000	1.457033
4.763500	1.456714
4.764000	1.456077
4.764500	1.455122
4.765000	1.456077
4.765500	1.456714
4.766000	1.457352
4.766500	1.456077
4.767000	1.456396
4.767500	1.455440
4.768000	1.457033
4.768500	1.457670
4.769000	1.456077
4.769500	1.454803
4.770000	1.456714
4.770500	1.458944
4.771000	1.456714
4.771500	1.454166
4.772000	1.455759
4.772500	1.459581
4.773000	1.457352
4.773500	1.453529
4.774000	1.455759
4.774500	1.458307
4.775000	1.457352
4.775500	1.455122
4.776000	1.455440
4.776500	1.457670
4.777000	1.456396
4.777500	1.456714
4.778000	1.455122
4.778500	1.456077
4.779000	1.457033
4.779500	1.457352
4.780000	1.456077
4.780500	1.456077
4.781000	1.455122
4.781500	1.456396
4.782000	1.457033
4.782500	1.456077
4.783000	1.454485
4.783500	1.455759
4.784000	1.458307
4.784500	1.457033
4.785000	1.453848
4.785500	1.455122
4.786000	1.458944
4.786500	1.457033
4.787000	1.453211
4.787500	1.455122
4.788000	1.458307
4.788500	1.456714
4.789000	1.455122
4.789500	1.455440
4.790000	1.455759
4.790500	1.457352
4.791000	1.456396
4.791500	1.455122
4.792000	1.454803
4.792500	1.456714
4.793000	1.457033
4.793500	1.456077
4.794000	1.456077
4.794500	1.456077
4.795000	1.456714
4.795500	1.457670
4.796000	1.456077
4.796500	1.453529
4.797000	1.456077
4.797500	1.459263
4.798000	1.456714
4.798500	1.452255
4.799000	1.455759
4.799500	1.459263
4.800000	1.457352
4.800500	1.454166
4.801000	1.454803
4.801500	1.457989
4.802000	1.457352
4.802500	1.455122
4.803000	1.456396
4.803500	1.456077
4.804000	1.456714
4.804500	1.457352
4.805000	1.456077
4.805500	1.455440
4.806000	1.455759
4.806500	1.457033
4.807000	1.457033
4.807500	1.455122
4.808000	1.454803
4.808500	1.456396
4.809000	1.457352
4.809500	1.456714
4.810000	1.453211
4.810500	1.455440
4.811000	1.459581
4.811500	1.457033
4.812000	1.452255
4.812500	1.454803
4.813000	1.458307
4.813500	1.456396
4.814000	1.454485
4.814500	1.454803
4.815000	1.456714
4.815500	1.456396
4.816000	1.455122
4.816500	1.455759
4.817000	1.455759
4.817500	1.456396
4.818000	1.456396
4.818500	1.456396
4.819000	1.455122
4.819500	1.455440
4.820000	1.456714
4.820500	1.457033
4.821000	1.455122
4.821500	1.454166
4.822000	1.456077
4.822500	1.457989
4.823000	1.456714
4.823500	1.453211
4.824000	1.454485
4.824500	1.459263
4.825000	1.457033
4.825500	1.453211
4.826000	1.455440
4.826500	1.457352
4.827000	1.457352
4.827500	1.455122
4.828000	1.455759
4.828500	1.456077
4.829000	1.456396
4.829500	1.456077
4.830000	1.456396
4.830500	1.454803
4.831000	1.456396
4.831500	1.456077
4.832000	1.456396
4.832500	1.455440
4.833000	1.454485
4.833500	1.456714
4.834000	1.457670
4.834500	1.455759
4.835000	1.454485
4.835500	1.455122
4.836000	1.459263
4.836500	1.457033
4.837000	1.453211
4.837500	1.454485
4.838000	1.458944
4.838500	1.456714
4.839000	1.454166
4.839500	1.455759
4.840000	1.457670
4.840500	1.456714
4.841000	1.455759
4.841500	1.455122
4.842000	1.456077
4.842500	1.456396
4.843000	1.456077
4.843500	1.456077
4.844000	1.455440
4.844500	1.456714
4.845000	1.457352
4.845500	1.456396
4.846000	1.455440
4.846500	1.455122
4.847000	1.455759
4.847500	1.457352
4.848000	1.456396
4.848500	1.453848
4.849000	1.456396
4.849500	1.459581
4.850000	1.457352
4.850500	1.452573
4.851000	1.454485
4.851500	1.458307
4.852000	1.457352
4.852500	1.455122
4.853000	1.455440
4.853500	1.457352
4.854000	1.457670
4.854500	1.456396
4.855000	1.455440
4.855500	1.455440
4.856000	1.457033
4.856500	1.456714
4.857000	1.456714
4.857500	1.455440
4.858000	1.456077
4.858500	1.456714
4.859000	1.458307
4.859500	1.455759
4.860000	1.455122
4.860500	1.455759
4.861000	1.458626
4.861500	1.456714
4.862000	1.454485
4.862500	1.455122
4.863000	1.458944
4.863500	1.457989
4.864000	1.454166
4.864500	1.455759
4.865000	1.458626
4.865500	1.457989
4.866000	1.454803
4.866500	1.455122
4.867000	1.457352
4.867500	1.456714
4.868000	1.457352
4.868500	1.456396
4.869000	1.456077
4.869500	1.456396
4.870000	1.457352
4.870500	1.456714
4.871000	1.456077
4.871500	1.455122
4.872000	1.456714
4.872500	1.457670
4.873000	1.456714
4.873500	1.453848
4.874000	1.456077
4.874500	1.458944
4.875000	1.456396
4.875500	1.453211
4.876000	1.456077
4.876500	1.458944
4.877000	1.457033
4.877500	1.454485
4.878000	1.455122
4.878500	1.457670
4.879000	1.457033
4.879500	1.456396
4.880000	1.455759
4.880500	1.456396
4.881000	1.456077
4.881500	1.457033
4.882000	1.456077
4.882500	1.455440
4.883000	1.456714
4.883500	1.457352
4.884000	1.456077
4.884500	1.455759
4.885000	1.454803
4.885500	1.456714
4.886000	1.457989
4.886500	1.455759
4.887000	1.453529
4.887500	1.456396
4.888000	1.459900
4.888500	1.457033
4.889000	1.453529
4.889500	1.454803
4.890000	1.459263
4.890500	1.457352
4.891000	1.454485
4.891500	1.455122
4.892000	1.457352
4.892500	1.457033
4.893000	1.456714
4.893500	1.455440
4.894000	1.455759
4.894500	1.457033
4.895000	1.456396
4.895500	1.457352
4.896000	1.455759
4.896500	1.456396
4.897000	1.457033
4.897500	1.456714
4.898000	1.456077
4.898500	1.453848
4.899000	1.456077
4.899500	1.458307
4.900000	1.457033
4.900500	1.453211
4.901000	1.455759
4.901500	1.459581
4.902000	1.458307
4.902500	1.453529
4.903000	1.455122
4.903500	1.457989
4.904000	1.457033
4.904500	1.455440
4.905000	1.455759
4.905500	1.456714
4.906000	1.456714
4.906500	1.456714
4.907000	1.456077
4.907500	1.455759
4.908000	1.456077
4.908500	1.456714
4.909000	1.457352
4.909500	1.455440
4.910000	1.455122
4.910500	1.457352
4.911000	1.457670
4.911500	1.456714
4.912000	1.454485
4.912500	1.456396
4.913000	1.458944
4.913500	1.456714
4.914000	1.453211
4.914500	1.456077
4.915000	1.459263
4.915500	1.456714
4.916000	1.453848
4.916500	1.455440
4.917000	1.458626
4.917500	1.457352
4.918000	1.455122
4.918500	1.432506
4.919000	1.456714
4.919500	1.456396
4.920000	1.456396
4.920500	1.455440
4.921000	1.455759
4.921500	1.456714
4.922000	1.457352
4.922500	1.457352
4.923000	1.455440
4.923500	1.455759
4.924000	1.456396
4.924500	1.458307
4.925000	1.456077
4.925500	1.454803
4.926000	1.456396
4.926500	1.458626
4.927000	1.457352
4.927500	1.453211
4.928000	1.455440
4.928500	1.458944
4.929000	1.456714
4.929500	1.453848
4.930000	1.455122
4.930500	1.458626
4.931000	1.457989
4.931500	1.455759
4.932000	1.455122
4.932500	1.456714
4.933000	1.457033
4.933500	1.456714
4.934000	1.456714
4.934500	1.455759
4.935000	1.455759
4.935500	1.457352
4.936000	1.456396
4.936500	1.455122
4.937000	1.455759
4.937500	1.456714
4.938000	1.457670
4.938500	1.456714
4.939000	1.454166
4.939500	1.456077
4.940000	1.458626
4.940500	1.457033
4.941000	1.453529
4.941500	1.455122
4.942000	1.459900
4.942500	1.457352
4.943000	1.453529
4.943500	1.454803
4.944000	1.457352
4.944500	1.457352
4.945000	1.455122
4.945500	1.455759
4.946000	1.456714
4.946500	1.456714
4.947000	1.456714
4.947500	1.456077
4.948000	1.455440
4.948500	1.456077
4.949000	1.457352
4.949500	1.456714
4.950000	1.455440
4.950500	1.455440
4.951000	1.457033
4.951500	1.457989
4.952000	1.455759
4.952500	1.455122
4.953000	1.456714
4.953500	1.459581
4.954000	1.457352
4.954500	1.453529
4.955000	1.454803
4.955500	1.459581
4.956000	1.457989
4.956500	1.454485
4.957000	1.456077
4.957500	1.458307
4.958000	1.457033
4.958500	1.456077
4.959000	1.455759
4.959500	1.456077
4.960000	1.457352
4.960500	1.456714
4.961000	1.455759
4.961500	1.455440
4.962000	1.456396
4.962500	1.456714
4.963000	1.456714
4.963500	1.455759
4.964000	1.455759
4.964500	1.456396
4.965000	1.458626
4.965500	1.456714
4.966000	1.454485
4.966500	1.456714
4.967000	1.459581
4.967500	1.457352
4.968000	1.453529
4.968500	1.455440
4.969000	1.458944
4.969500	1.456714
4.970000	1.455122
4.970500	1.455440
4.971000	1.457670
4.971500	1.457033
4.972000	1.456077
4.972500	1.455440
4.973000	1.454803
4.973500	1.455759
4.974000	1.457033
4.974500	1.456396
4.975000	1.455759
4.975500	1.456077
4.976000	1.456714
4.976500	1.457033
4.977000	1.455440
4.977500	1.455122
4.978000	1.457352
4.978500	1.456714
4.979000	1.456396
4.979500	1.453848
4.980000	1.455759
4.980500	1.458944
4.981000	1.456714
4.981500	1.452892
4.982000	1.455122
4.982500	1.458944
4.983000	1.457352
4.983500	1.453848
4.984000	1.455440
4.984500	1.458307
4.985000	1.457352
4.985500	1.455440
4.986000	1.455122
4.986500	1.456396
4.987000	1.456714
4.987500	1.456714
4.988000	1.455122
4.988500	1.455759
4.989000	1.455122
4.989500	1.457352
4.990000	1.456077
4.990500	1.455440
4.991000	1.455122
4.991500	1.456714
4.992000	1.457670
4.992500	1.456077
4.993000	1.453211
4.993500	1.455440
4.994000	1.459263
4.994500	1.456714
4.995000	1.453211
4.995500	1.454485
4.996000	1.459263
4.996500	1.457033
4.997000	1.453211
4.997500	1.454803
4.998000	1.457989
4.998500	1.457033
4.999000	1.454485
4.999500	1.455122

