LabVIEW Measurement	
Writer_Version	2
Reader_Version	2
Separator	Tab
Decimal_Separator	.
Multi_Headings	Yes
X_Columns	One
Time_Pref	Absolute
Operator	labuser
Date	2023/05/24
Time	10:22:09.2166241999998879881
***End_of_Header***	
	
Channels	1	
Samples	10000	
Date	2023/05/24	
Time	10:22:09.2166241999998879881	
Y_Unit_Label	Volts	
X_Dimension	Time	
X0	0.0000000000000000E+0	
Delta_X	0.000500	
***End_of_Header***		
X_Value	Voltage	Comment
0.000000	1.642741
0.000500	1.644015
0.001000	1.643059
0.001500	1.642741
0.002000	1.643059
0.002500	1.644333
0.003000	1.643059
0.003500	1.643378
0.004000	1.644015
0.004500	1.644015
0.005000	1.642741
0.005500	1.644652
0.006000	1.644015
0.006500	1.643059
0.007000	1.643378
0.007500	1.644652
0.008000	1.644015
0.008500	1.642422
0.009000	1.642422
0.009500	1.644015
0.010000	1.644015
0.010500	1.642104
0.011000	1.642104
0.011500	1.645289
0.012000	1.644652
0.012500	1.641785
0.013000	1.642422
0.013500	1.645608
0.014000	1.644970
0.014500	1.641785
0.015000	1.642422
0.015500	1.646245
0.016000	1.644970
0.016500	1.641785
0.017000	1.642422
0.017500	1.645289
0.018000	1.644652
0.018500	1.640511
0.019000	1.641785
0.019500	1.646563
0.020000	1.643696
0.020500	1.640511
0.021000	1.642741
0.021500	1.646563
0.022000	1.644333
0.022500	1.641148
0.023000	1.643059
0.023500	1.646882
0.024000	1.644970
0.024500	1.641148
0.025000	1.643378
0.025500	1.646882
0.026000	1.644970
0.026500	1.641467
0.027000	1.643696
0.027500	1.645926
0.028000	1.644333
0.028500	1.642422
0.029000	1.643378
0.029500	1.646563
0.030000	1.644015
0.030500	1.642104
0.031000	1.643696
0.031500	1.646245
0.032000	1.644015
0.032500	1.642422
0.033000	1.644652
0.033500	1.645608
0.034000	1.643378
0.034500	1.643378
0.035000	1.644652
0.035500	1.645289
0.036000	1.643696
0.036500	1.643378
0.037000	1.644970
0.037500	1.644652
0.038000	1.643378
0.038500	1.644015
0.039000	1.644652
0.039500	1.644333
0.040000	1.644015
0.040500	1.644333
0.041000	1.645289
0.041500	1.644970
0.042000	1.644015
0.042500	1.644333
0.043000	1.644333
0.043500	1.643696
0.044000	1.643378
0.044500	1.644333
0.045000	1.644970
0.045500	1.643696
0.046000	1.643696
0.046500	1.644652
0.047000	1.644333
0.047500	1.644652
0.048000	1.644015
0.048500	1.644652
0.049000	1.643378
0.049500	1.643696
0.050000	1.644333
0.050500	1.644333
0.051000	1.644015
0.051500	1.643696
0.052000	1.644970
0.052500	1.645926
0.053000	1.642422
0.053500	1.643059
0.054000	1.644333
0.054500	1.644652
0.055000	1.641785
0.055500	1.642422
0.056000	1.645289
0.056500	1.644970
0.057000	1.641785
0.057500	1.642741
0.058000	1.646245
0.058500	1.644970
0.059000	1.641785
0.059500	1.643696
0.060000	1.646882
0.060500	1.644652
0.061000	1.641785
0.061500	1.642422
0.062000	1.646245
0.062500	1.644652
0.063000	1.641467
0.063500	1.642104
0.064000	1.646563
0.064500	1.644333
0.065000	1.641148
0.065500	1.643378
0.066000	1.646563
0.066500	1.645289
0.067000	1.641467
0.067500	1.643378
0.068000	1.646563
0.068500	1.645289
0.069000	1.641148
0.069500	1.643378
0.070000	1.646882
0.070500	1.643696
0.071000	1.641467
0.071500	1.643378
0.072000	1.646245
0.072500	1.644015
0.073000	1.641467
0.073500	1.643059
0.074000	1.645608
0.074500	1.644015
0.075000	1.641467
0.075500	1.643378
0.076000	1.645608
0.076500	1.643378
0.077000	1.642741
0.077500	1.643378
0.078000	1.645289
0.078500	1.644015
0.079000	1.642741
0.079500	1.644015
0.080000	1.645289
0.080500	1.642741
0.081000	1.642422
0.081500	1.645289
0.082000	1.644652
0.082500	1.643059
0.083000	1.643378
0.083500	1.644333
0.084000	1.644333
0.084500	1.643059
0.085000	1.643059
0.085500	1.644970
0.086000	1.644333
0.086500	1.643059
0.087000	1.643378
0.087500	1.644652
0.088000	1.643696
0.088500	1.643696
0.089000	1.643378
0.089500	1.645289
0.090000	1.643696
0.090500	1.643378
0.091000	1.644333
0.091500	1.644652
0.092000	1.643696
0.092500	1.644015
0.093000	1.643059
0.093500	1.644333
0.094000	1.643696
0.094500	1.643378
0.095000	1.644015
0.095500	1.643378
0.096000	1.643378
0.096500	1.643696
0.097000	1.644652
0.097500	1.643059
0.098000	1.643059
0.098500	1.644652
0.099000	1.644970
0.099500	1.643059
0.100000	1.643059
0.100500	1.644970
0.101000	1.644333
0.101500	1.642104
0.102000	1.643059
0.102500	1.644970
0.103000	1.645289
0.103500	1.641785
0.104000	1.642741
0.104500	1.645608
0.105000	1.644970
0.105500	1.641785
0.106000	1.642422
0.106500	1.645608
0.107000	1.645289
0.107500	1.640829
0.108000	1.643378
0.108500	1.646882
0.109000	1.644333
0.109500	1.641148
0.110000	1.643059
0.110500	1.647200
0.111000	1.644333
0.111500	1.640829
0.112000	1.643378
0.112500	1.646563
0.113000	1.644333
0.113500	1.640829
0.114000	1.644015
0.114500	1.646245
0.115000	1.644015
0.115500	1.640829
0.116000	1.642741
0.116500	1.646563
0.117000	1.644652
0.117500	1.641467
0.118000	1.643059
0.118500	1.646245
0.119000	1.643696
0.119500	1.641148
0.120000	1.643378
0.120500	1.645608
0.121000	1.643696
0.121500	1.642104
0.122000	1.643696
0.122500	1.644970
0.123000	1.643378
0.123500	1.641785
0.124000	1.644015
0.124500	1.644652
0.125000	1.643696
0.125500	1.642422
0.126000	1.642741
0.126500	1.643696
0.127000	1.643378
0.127500	1.642104
0.128000	1.643696
0.128500	1.643378
0.129000	1.642422
0.129500	1.642104
0.130000	1.643059
0.130500	1.643378
0.131000	1.643378
0.131500	1.643696
0.132000	1.644333
0.132500	1.642422
0.133000	1.643378
0.133500	1.643059
0.134000	1.644333
0.134500	1.642741
0.135000	1.642422
0.135500	1.644015
0.136000	1.643059
0.136500	1.642741
0.137000	1.642741
0.137500	1.644015
0.138000	1.643696
0.138500	1.643059
0.139000	1.644015
0.139500	1.643059
0.140000	1.642741
0.140500	1.642422
0.141000	1.643378
0.141500	1.643059
0.142000	1.642422
0.142500	1.642422
0.143000	1.643378
0.143500	1.643696
0.144000	1.642741
0.144500	1.642422
0.145000	1.644333
0.145500	1.643696
0.146000	1.641467
0.146500	1.642104
0.147000	1.644652
0.147500	1.644015
0.148000	1.640511
0.148500	1.642104
0.149000	1.644970
0.149500	1.644015
0.150000	1.640829
0.150500	1.641467
0.151000	1.645926
0.151500	1.644015
0.152000	1.640192
0.152500	1.641148
0.153000	1.645608
0.153500	1.644015
0.154000	1.639874
0.154500	1.642741
0.155000	1.645926
0.155500	1.643378
0.156000	1.639555
0.156500	1.642422
0.157000	1.645608
0.157500	1.643696
0.158000	1.640192
0.158500	1.642422
0.159000	1.644652
0.159500	1.643059
0.160000	1.639874
0.160500	1.642422
0.161000	1.644652
0.161500	1.642422
0.162000	1.641148
0.162500	1.641785
0.163000	1.644015
0.163500	1.642422
0.164000	1.641148
0.164500	1.643378
0.165000	1.644652
0.165500	1.642422
0.166000	1.640829
0.166500	1.642422
0.167000	1.644333
0.167500	1.642741
0.168000	1.641785
0.168500	1.643378
0.169000	1.643696
0.169500	1.642422
0.170000	1.642104
0.170500	1.643059
0.171000	1.644652
0.171500	1.642422
0.172000	1.641785
0.172500	1.643059
0.173000	1.643696
0.173500	1.642741
0.174000	1.643059
0.174500	1.643378
0.175000	1.642741
0.175500	1.642422
0.176000	1.642422
0.176500	1.642741
0.177000	1.643059
0.177500	1.642104
0.178000	1.642741
0.178500	1.642741
0.179000	1.643696
0.179500	1.642104
0.180000	1.643696
0.180500	1.642741
0.181000	1.643378
0.181500	1.643696
0.182000	1.643696
0.182500	1.643059
0.183000	1.643059
0.183500	1.643059
0.184000	1.644015
0.184500	1.643378
0.185000	1.642741
0.185500	1.643378
0.186000	1.644015
0.186500	1.643378
0.187000	1.643059
0.187500	1.644970
0.188000	1.644333
0.188500	1.641785
0.189000	1.642741
0.189500	1.644970
0.190000	1.643696
0.190500	1.642104
0.191000	1.641785
0.191500	1.645289
0.192000	1.643696
0.192500	1.641785
0.193000	1.642422
0.193500	1.645926
0.194000	1.644652
0.194500	1.641148
0.195000	1.641785
0.195500	1.646245
0.196000	1.644652
0.196500	1.641148
0.197000	1.643378
0.197500	1.645926
0.198000	1.645289
0.198500	1.640829
0.199000	1.643378
0.199500	1.646563
0.200000	1.643696
0.200500	1.641148
0.201000	1.642741
0.201500	1.645926
0.202000	1.644652
0.202500	1.641467
0.203000	1.643696
0.203500	1.646563
0.204000	1.644652
0.204500	1.641467
0.205000	1.643696
0.205500	1.646245
0.206000	1.644333
0.206500	1.642422
0.207000	1.643378
0.207500	1.646245
0.208000	1.644015
0.208500	1.642741
0.209000	1.644333
0.209500	1.644970
0.210000	1.644970
0.210500	1.643378
0.211000	1.644970
0.211500	1.645289
0.212000	1.644015
0.212500	1.644015
0.213000	1.644970
0.213500	1.645608
0.214000	1.644970
0.214500	1.644652
0.215000	1.645289
0.215500	1.644970
0.216000	1.643696
0.216500	1.644652
0.217000	1.645289
0.217500	1.644333
0.218000	1.644015
0.218500	1.644333
0.219000	1.645289
0.219500	1.644970
0.220000	1.643696
0.220500	1.645289
0.221000	1.644970
0.221500	1.644652
0.222000	1.644333
0.222500	1.643696
0.223000	1.645289
0.223500	1.644652
0.224000	1.644333
0.224500	1.644652
0.225000	1.644333
0.225500	1.644015
0.226000	1.644015
0.226500	1.644970
0.227000	1.644015
0.227500	1.644015
0.228000	1.644333
0.228500	1.645289
0.229000	1.644333
0.229500	1.644652
0.230000	1.645926
0.230500	1.645289
0.231000	1.644333
0.231500	1.644333
0.232000	1.644970
0.232500	1.645926
0.233000	1.642422
0.233500	1.644015
0.234000	1.645926
0.234500	1.645926
0.235000	1.642741
0.235500	1.644015
0.236000	1.646882
0.236500	1.645926
0.237000	1.642104
0.237500	1.644015
0.238000	1.646245
0.238500	1.645608
0.239000	1.642422
0.239500	1.643059
0.240000	1.646882
0.240500	1.645289
0.241000	1.641467
0.241500	1.643696
0.242000	1.647200
0.242500	1.645608
0.243000	1.642104
0.243500	1.643696
0.244000	1.647837
0.244500	1.645289
0.245000	1.642104
0.245500	1.644015
0.246000	1.647837
0.246500	1.645289
0.247000	1.641785
0.247500	1.644333
0.248000	1.647200
0.248500	1.644970
0.249000	1.642741
0.249500	1.644652
0.250000	1.647519
0.250500	1.645289
0.251000	1.641785
0.251500	1.644970
0.252000	1.646563
0.252500	1.645608
0.253000	1.642741
0.253500	1.643696
0.254000	1.646245
0.254500	1.644970
0.255000	1.643059
0.255500	1.644970
0.256000	1.645608
0.256500	1.644652
0.257000	1.643378
0.257500	1.644333
0.258000	1.646245
0.258500	1.644015
0.259000	1.644015
0.259500	1.645289
0.260000	1.646245
0.260500	1.643696
0.261000	1.644015
0.261500	1.645289
0.262000	1.644970
0.262500	1.644333
0.263000	1.644970
0.263500	1.644652
0.264000	1.644333
0.264500	1.643696
0.265000	1.644333
0.265500	1.644970
0.266000	1.645289
0.266500	1.644970
0.267000	1.643696
0.267500	1.645926
0.268000	1.644652
0.268500	1.643696
0.269000	1.645289
0.269500	1.645608
0.270000	1.644333
0.270500	1.643059
0.271000	1.644652
0.271500	1.643696
0.272000	1.643378
0.272500	1.644015
0.273000	1.644652
0.273500	1.644333
0.274000	1.643378
0.274500	1.644652
0.275000	1.644970
0.275500	1.644015
0.276000	1.643059
0.276500	1.644652
0.277000	1.644652
0.277500	1.642422
0.278000	1.643059
0.278500	1.645608
0.279000	1.644333
0.279500	1.642741
0.280000	1.642104
0.280500	1.644015
0.281000	1.644333
0.281500	1.642741
0.282000	1.642104
0.282500	1.646245
0.283000	1.644970
0.283500	1.641785
0.284000	1.642104
0.284500	1.645926
0.285000	1.644652
0.285500	1.641148
0.286000	1.642741
0.286500	1.646563
0.287000	1.644015
0.287500	1.641467
0.288000	1.642104
0.288500	1.646245
0.289000	1.644652
0.289500	1.641148
0.290000	1.642104
0.290500	1.645926
0.291000	1.644015
0.291500	1.641148
0.292000	1.642741
0.292500	1.646563
0.293000	1.643696
0.293500	1.640511
0.294000	1.643059
0.294500	1.645608
0.295000	1.643378
0.295500	1.641148
0.296000	1.642422
0.296500	1.645926
0.297000	1.643696
0.297500	1.641148
0.298000	1.643059
0.298500	1.645608
0.299000	1.643059
0.299500	1.642104
0.300000	1.644015
0.300500	1.644970
0.301000	1.643696
0.301500	1.642104
0.302000	1.644015
0.302500	1.644970
0.303000	1.643059
0.303500	1.641785
0.304000	1.644015
0.304500	1.644333
0.305000	1.643378
0.305500	1.642422
0.306000	1.643059
0.306500	1.644015
0.307000	1.642741
0.307500	1.642104
0.308000	1.643059
0.308500	1.644333
0.309000	1.642741
0.309500	1.643696
0.310000	1.644015
0.310500	1.643696
0.311000	1.643059
0.311500	1.643378
0.312000	1.644333
0.312500	1.643378
0.313000	1.642422
0.313500	1.644015
0.314000	1.643378
0.314500	1.643059
0.315000	1.643378
0.315500	1.643378
0.316000	1.642422
0.316500	1.643378
0.317000	1.643059
0.317500	1.644652
0.318000	1.643378
0.318500	1.643378
0.319000	1.643696
0.319500	1.644333
0.320000	1.642741
0.320500	1.642422
0.321000	1.643696
0.321500	1.644015
0.322000	1.644015
0.322500	1.642741
0.323000	1.645608
0.323500	1.644333
0.324000	1.642422
0.324500	1.643696
0.325000	1.644652
0.325500	1.644970
0.326000	1.642104
0.326500	1.643696
0.327000	1.646245
0.327500	1.644652
0.328000	1.641785
0.328500	1.642104
0.329000	1.645926
0.329500	1.644652
0.330000	1.641785
0.330500	1.643378
0.331000	1.646563
0.331500	1.644015
0.332000	1.641785
0.332500	1.642422
0.333000	1.647200
0.333500	1.644652
0.334000	1.642104
0.334500	1.643378
0.335000	1.646563
0.335500	1.644652
0.336000	1.641467
0.336500	1.642741
0.337000	1.647200
0.337500	1.644970
0.338000	1.641148
0.338500	1.643378
0.339000	1.646882
0.339500	1.644333
0.340000	1.641467
0.340500	1.644015
0.341000	1.646882
0.341500	1.644652
0.342000	1.641467
0.342500	1.643059
0.343000	1.645926
0.343500	1.644015
0.344000	1.641467
0.344500	1.644652
0.345000	1.646563
0.345500	1.644970
0.346000	1.643059
0.346500	1.644015
0.347000	1.645289
0.347500	1.644015
0.348000	1.642741
0.348500	1.644652
0.349000	1.645608
0.349500	1.643378
0.350000	1.643059
0.350500	1.644652
0.351000	1.645289
0.351500	1.644015
0.352000	1.643059
0.352500	1.644015
0.353000	1.644970
0.353500	1.644015
0.354000	1.643059
0.354500	1.644970
0.355000	1.644333
0.355500	1.643696
0.356000	1.643696
0.356500	1.645289
0.357000	1.644015
0.357500	1.644015
0.358000	1.644015
0.358500	1.643378
0.359000	1.644652
0.359500	1.643378
0.360000	1.644652
0.360500	1.644333
0.361000	1.644015
0.361500	1.643378
0.362000	1.644015
0.362500	1.644333
0.363000	1.644015
0.363500	1.644015
0.364000	1.644015
0.364500	1.643378
0.365000	1.643059
0.365500	1.644015
0.366000	1.644333
0.366500	1.643059
0.367000	1.643059
0.367500	1.645289
0.368000	1.644333
0.368500	1.643378
0.369000	1.643059
0.369500	1.644970
0.370000	1.644333
0.370500	1.642741
0.371000	1.642422
0.371500	1.645289
0.372000	1.645608
0.372500	1.642422
0.373000	1.643378
0.373500	1.645608
0.374000	1.644333
0.374500	1.642104
0.375000	1.643059
0.375500	1.646245
0.376000	1.645608
0.376500	1.642741
0.377000	1.643059
0.377500	1.645926
0.378000	1.644652
0.378500	1.641785
0.379000	1.642422
0.379500	1.646882
0.380000	1.644333
0.380500	1.640511
0.381000	1.643059
0.381500	1.646245
0.382000	1.644970
0.382500	1.641467
0.383000	1.643059
0.383500	1.646245
0.384000	1.645289
0.384500	1.641785
0.385000	1.643378
0.385500	1.646882
0.386000	1.644015
0.386500	1.641148
0.387000	1.642741
0.387500	1.646882
0.388000	1.644652
0.388500	1.640829
0.389000	1.643378
0.389500	1.646245
0.390000	1.644652
0.390500	1.641467
0.391000	1.643696
0.391500	1.647200
0.392000	1.645289
0.392500	1.640829
0.393000	1.643378
0.393500	1.646882
0.394000	1.644652
0.394500	1.641467
0.395000	1.644333
0.395500	1.646245
0.396000	1.644015
0.396500	1.641148
0.397000	1.643059
0.397500	1.646245
0.398000	1.645289
0.398500	1.641785
0.399000	1.644333
0.399500	1.646245
0.400000	1.643378
0.400500	1.642422
0.401000	1.644333
0.401500	1.645926
0.402000	1.644015
0.402500	1.642104
0.403000	1.644015
0.403500	1.646245
0.404000	1.644333
0.404500	1.642741
0.405000	1.643378
0.405500	1.645926
0.406000	1.643378
0.406500	1.643059
0.407000	1.644652
0.407500	1.645289
0.408000	1.644652
0.408500	1.643059
0.409000	1.644333
0.409500	1.646245
0.410000	1.644652
0.410500	1.643378
0.411000	1.644652
0.411500	1.644333
0.412000	1.644652
0.412500	1.643696
0.413000	1.644333
0.413500	1.644652
0.414000	1.643696
0.414500	1.643059
0.415000	1.644333
0.415500	1.644333
0.416000	1.643696
0.416500	1.644015
0.417000	1.644970
0.417500	1.643696
0.418000	1.644015
0.418500	1.644970
0.419000	1.644333
0.419500	1.644015
0.420000	1.644015
0.420500	1.643378
0.421000	1.643378
0.421500	1.643378
0.422000	1.642741
0.422500	1.644333
0.423000	1.645289
0.423500	1.643378
0.424000	1.643696
0.424500	1.643696
0.425000	1.643378
0.425500	1.643059
0.426000	1.643696
0.426500	1.644970
0.427000	1.643696
0.427500	1.643696
0.428000	1.644970
0.428500	1.644015
0.429000	1.642741
0.429500	1.643696
0.430000	1.644970
0.430500	1.644652
0.431000	1.642741
0.431500	1.643059
0.432000	1.645289
0.432500	1.644333
0.433000	1.642104
0.433500	1.642422
0.434000	1.645608
0.434500	1.644015
0.435000	1.640192
0.435500	1.642422
0.436000	1.646563
0.436500	1.644015
0.437000	1.641148
0.437500	1.642741
0.438000	1.646882
0.438500	1.644015
0.439000	1.641148
0.439500	1.643378
0.440000	1.646245
0.440500	1.643696
0.441000	1.640511
0.441500	1.643378
0.442000	1.645926
0.442500	1.643378
0.443000	1.640511
0.443500	1.643059
0.444000	1.645926
0.444500	1.643378
0.445000	1.641467
0.445500	1.643696
0.446000	1.645608
0.446500	1.644015
0.447000	1.644970
0.447500	1.643378
0.448000	1.645608
0.448500	1.643059
0.449000	1.642741
0.449500	1.643378
0.450000	1.645289
0.450500	1.642741
0.451000	1.642422
0.451500	1.644333
0.452000	1.644970
0.452500	1.643378
0.453000	1.643059
0.453500	1.645289
0.454000	1.644015
0.454500	1.643378
0.455000	1.643696
0.455500	1.644652
0.456000	1.644652
0.456500	1.643378
0.457000	1.644015
0.457500	1.644652
0.458000	1.644015
0.458500	1.643059
0.459000	1.643696
0.459500	1.644652
0.460000	1.643696
0.460500	1.643696
0.461000	1.645608
0.461500	1.644015
0.462000	1.643059
0.462500	1.644333
0.463000	1.644333
0.463500	1.643378
0.464000	1.643378
0.464500	1.644652
0.465000	1.644970
0.465500	1.643696
0.466000	1.642741
0.466500	1.645926
0.467000	1.646245
0.467500	1.643378
0.468000	1.642741
0.468500	1.646245
0.469000	1.644970
0.469500	1.642741
0.470000	1.643378
0.470500	1.645926
0.471000	1.645608
0.471500	1.643059
0.472000	1.642741
0.472500	1.646563
0.473000	1.645926
0.473500	1.642104
0.474000	1.643378
0.474500	1.646882
0.475000	1.645289
0.475500	1.641785
0.476000	1.643378
0.476500	1.648156
0.477000	1.645289
0.477500	1.641785
0.478000	1.644015
0.478500	1.646882
0.479000	1.645289
0.479500	1.642104
0.480000	1.644333
0.480500	1.647200
0.481000	1.645289
0.481500	1.641785
0.482000	1.644970
0.482500	1.646563
0.483000	1.645289
0.483500	1.642741
0.484000	1.643696
0.484500	1.646563
0.485000	1.644333
0.485500	1.642422
0.486000	1.644652
0.486500	1.645608
0.487000	1.644015
0.487500	1.642741
0.488000	1.644652
0.488500	1.645926
0.489000	1.644015
0.489500	1.643696
0.490000	1.644652
0.490500	1.644970
0.491000	1.644015
0.491500	1.644333
0.492000	1.644970
0.492500	1.644015
0.493000	1.643378
0.493500	1.644333
0.494000	1.644652
0.494500	1.644652
0.495000	1.643378
0.495500	1.643378
0.496000	1.644015
0.496500	1.643696
0.497000	1.643696
0.497500	1.644652
0.498000	1.644015
0.498500	1.644015
0.499000	1.644333
0.499500	1.645608
0.500000	1.644015
0.500500	1.644015
0.501000	1.644652
0.501500	1.644970
0.502000	1.644015
0.502500	1.643378
0.503000	1.645289
0.503500	1.644652
0.504000	1.643378
0.504500	1.644015
0.505000	1.644970
0.505500	1.644970
0.506000	1.643059
0.506500	1.643059
0.507000	1.645289
0.507500	1.645608
0.508000	1.642104
0.508500	1.643696
0.509000	1.645926
0.509500	1.644970
0.510000	1.642104
0.510500	1.643059
0.511000	1.645926
0.511500	1.645289
0.512000	1.641785
0.512500	1.644015
0.513000	1.646563
0.513500	1.644333
0.514000	1.642104
0.514500	1.643059
0.515000	1.647519
0.515500	1.644970
0.516000	1.641467
0.516500	1.643696
0.517000	1.647519
0.517500	1.645289
0.518000	1.642104
0.518500	1.644015
0.519000	1.647200
0.519500	1.644970
0.520000	1.641148
0.520500	1.644015
0.521000	1.646882
0.521500	1.644333
0.522000	1.641785
0.522500	1.644015
0.523000	1.647200
0.523500	1.644970
0.524000	1.642422
0.524500	1.644333
0.525000	1.647519
0.525500	1.644970
0.526000	1.642104
0.526500	1.644015
0.527000	1.645926
0.527500	1.644652
0.528000	1.643059
0.528500	1.644970
0.529000	1.644970
0.529500	1.644015
0.530000	1.644015
0.530500	1.644015
0.531000	1.644652
0.531500	1.644015
0.532000	1.644333
0.532500	1.645289
0.533000	1.644652
0.533500	1.644652
0.534000	1.644333
0.534500	1.645608
0.535000	1.644333
0.535500	1.644015
0.536000	1.645608
0.536500	1.645926
0.537000	1.644015
0.537500	1.644015
0.538000	1.644333
0.538500	1.644333
0.539000	1.644333
0.539500	1.645608
0.540000	1.645289
0.540500	1.644015
0.541000	1.644015
0.541500	1.646245
0.542000	1.644970
0.542500	1.643696
0.543000	1.644015
0.543500	1.645608
0.544000	1.644970
0.544500	1.642422
0.545000	1.643378
0.545500	1.646563
0.546000	1.645289
0.546500	1.641785
0.547000	1.643696
0.547500	1.646245
0.548000	1.645608
0.548500	1.642104
0.549000	1.644652
0.549500	1.647837
0.550000	1.645608
0.550500	1.642422
0.551000	1.644333
0.551500	1.647837
0.552000	1.645289
0.552500	1.641785
0.553000	1.644015
0.553500	1.647837
0.554000	1.645926
0.554500	1.642422
0.555000	1.643378
0.555500	1.646882
0.556000	1.644333
0.556500	1.642422
0.557000	1.644015
0.557500	1.647200
0.558000	1.645289
0.558500	1.643059
0.559000	1.644333
0.559500	1.647200
0.560000	1.645289
0.560500	1.643696
0.561000	1.641467
0.561500	1.645926
0.562000	1.645289
0.562500	1.643059
0.563000	1.645289
0.563500	1.646563
0.564000	1.644015
0.564500	1.643696
0.565000	1.645608
0.565500	1.645289
0.566000	1.644015
0.566500	1.644015
0.567000	1.645926
0.567500	1.645608
0.568000	1.644015
0.568500	1.644015
0.569000	1.645289
0.569500	1.644970
0.570000	1.643696
0.570500	1.644652
0.571000	1.645608
0.571500	1.644333
0.572000	1.644652
0.572500	1.644652
0.573000	1.644652
0.573500	1.644015
0.574000	1.644333
0.574500	1.644970
0.575000	1.644970
0.575500	1.644333
0.576000	1.644652
0.576500	1.644970
0.577000	1.644015
0.577500	1.644015
0.578000	1.645289
0.578500	1.645926
0.579000	1.643378
0.579500	1.643378
0.580000	1.646245
0.580500	1.645608
0.581000	1.642422
0.581500	1.643378
0.582000	1.646563
0.582500	1.645608
0.583000	1.642741
0.583500	1.644015
0.584000	1.646563
0.584500	1.645608
0.585000	1.642104
0.585500	1.643059
0.586000	1.646882
0.586500	1.645608
0.587000	1.641467
0.587500	1.644015
0.588000	1.648474
0.588500	1.646245
0.589000	1.641467
0.589500	1.643378
0.590000	1.646882
0.590500	1.645289
0.591000	1.641148
0.591500	1.643696
0.592000	1.647519
0.592500	1.644970
0.593000	1.642422
0.593500	1.644015
0.594000	1.647837
0.594500	1.644652
0.595000	1.641785
0.595500	1.644333
0.596000	1.647200
0.596500	1.644970
0.597000	1.641785
0.597500	1.644015
0.598000	1.646563
0.598500	1.644970
0.599000	1.643059
0.599500	1.645289
0.600000	1.645608
0.600500	1.644333
0.601000	1.643059
0.601500	1.644333
0.602000	1.645289
0.602500	1.643378
0.603000	1.643696
0.603500	1.644652
0.604000	1.646245
0.604500	1.643696
0.605000	1.643378
0.605500	1.643696
0.606000	1.644652
0.606500	1.644015
0.607000	1.643696
0.607500	1.644015
0.608000	1.644015
0.608500	1.644015
0.609000	1.644652
0.609500	1.644970
0.610000	1.644015
0.610500	1.643059
0.611000	1.643378
0.611500	1.644333
0.612000	1.644333
0.612500	1.643696
0.613000	1.644652
0.613500	1.644015
0.614000	1.643696
0.614500	1.643696
0.615000	1.644652
0.615500	1.644015
0.616000	1.643696
0.616500	1.644333
0.617000	1.644970
0.617500	1.643378
0.618000	1.643378
0.618500	1.644333
0.619000	1.644333
0.619500	1.643378
0.620000	1.642741
0.620500	1.644333
0.621000	1.644970
0.621500	1.642422
0.622000	1.642422
0.622500	1.645289
0.623000	1.644970
0.623500	1.642104
0.624000	1.642741
0.624500	1.645289
0.625000	1.645289
0.625500	1.641148
0.626000	1.643059
0.626500	1.646245
0.627000	1.645289
0.627500	1.641467
0.628000	1.642104
0.628500	1.646245
0.629000	1.644015
0.629500	1.641467
0.630000	1.642422
0.630500	1.646245
0.631000	1.644333
0.631500	1.640829
0.632000	1.643696
0.632500	1.646882
0.633000	1.644970
0.633500	1.641148
0.634000	1.643059
0.634500	1.646882
0.635000	1.643378
0.635500	1.641785
0.636000	1.643059
0.636500	1.645926
0.637000	1.644333
0.637500	1.641785
0.638000	1.643696
0.638500	1.645289
0.639000	1.644652
0.639500	1.642422
0.640000	1.643059
0.640500	1.644970
0.641000	1.644015
0.641500	1.642422
0.642000	1.644015
0.642500	1.645926
0.643000	1.643378
0.643500	1.642422
0.644000	1.644015
0.644500	1.645608
0.645000	1.643378
0.645500	1.642741
0.646000	1.644652
0.646500	1.644333
0.647000	1.643696
0.647500	1.643378
0.648000	1.644652
0.648500	1.644015
0.649000	1.643696
0.649500	1.643378
0.650000	1.644652
0.650500	1.644333
0.651000	1.643696
0.651500	1.644652
0.652000	1.644652
0.652500	1.643696
0.653000	1.644652
0.653500	1.644333
0.654000	1.644970
0.654500	1.644652
0.655000	1.643059
0.655500	1.644652
0.656000	1.644652
0.656500	1.644333
0.657000	1.644015
0.657500	1.644652
0.658000	1.644015
0.658500	1.643696
0.659000	1.644970
0.659500	1.644970
0.660000	1.643378
0.660500	1.644015
0.661000	1.644333
0.661500	1.644652
0.662000	1.643696
0.662500	1.643696
0.663000	1.645289
0.663500	1.644970
0.664000	1.643378
0.664500	1.642741
0.665000	1.645289
0.665500	1.644970
0.666000	1.643059
0.666500	1.643378
0.667000	1.646245
0.667500	1.644970
0.668000	1.642422
0.668500	1.644015
0.669000	1.646882
0.669500	1.645289
0.670000	1.641785
0.670500	1.643696
0.671000	1.647200
0.671500	1.645289
0.672000	1.641467
0.672500	1.643696
0.673000	1.647519
0.673500	1.645608
0.674000	1.641467
0.674500	1.643378
0.675000	1.647200
0.675500	1.645289
0.676000	1.641148
0.676500	1.643378
0.677000	1.646882
0.677500	1.645289
0.678000	1.642104
0.678500	1.643378
0.679000	1.647519
0.679500	1.644970
0.680000	1.641467
0.680500	1.644015
0.681000	1.646563
0.681500	1.644970
0.682000	1.641785
0.682500	1.643696
0.683000	1.646563
0.683500	1.643696
0.684000	1.641467
0.684500	1.644333
0.685000	1.645608
0.685500	1.644015
0.686000	1.643059
0.686500	1.644015
0.687000	1.645608
0.687500	1.643696
0.688000	1.643378
0.688500	1.644333
0.689000	1.644970
0.689500	1.644015
0.690000	1.642741
0.690500	1.644970
0.691000	1.644652
0.691500	1.643696
0.692000	1.643059
0.692500	1.644333
0.693000	1.644015
0.693500	1.643696
0.694000	1.643696
0.694500	1.644970
0.695000	1.644015
0.695500	1.643378
0.696000	1.643696
0.696500	1.644333
0.697000	1.645289
0.697500	1.642741
0.698000	1.644015
0.698500	1.644333
0.699000	1.642741
0.699500	1.643378
0.700000	1.643378
0.700500	1.644333
0.701000	1.643378
0.701500	1.644333
0.702000	1.644015
0.702500	1.643378
0.703000	1.643059
0.703500	1.644333
0.704000	1.644970
0.704500	1.644652
0.705000	1.642741
0.705500	1.644015
0.706000	1.644015
0.706500	1.643696
0.707000	1.643378
0.707500	1.644333
0.708000	1.644015
0.708500	1.643059
0.709000	1.643696
0.709500	1.645608
0.710000	1.645289
0.710500	1.641785
0.711000	1.643378
0.711500	1.645926
0.712000	1.644970
0.712500	1.641467
0.713000	1.642741
0.713500	1.646245
0.714000	1.645926
0.714500	1.641785
0.715000	1.643378
0.715500	1.646882
0.716000	1.644652
0.716500	1.641148
0.717000	1.643696
0.717500	1.646245
0.718000	1.644333
0.718500	1.641467
0.719000	1.644015
0.719500	1.647200
0.720000	1.645289
0.720500	1.642104
0.721000	1.643378
0.721500	1.647200
0.722000	1.645289
0.722500	1.641467
0.723000	1.643378
0.723500	1.646882
0.724000	1.644333
0.724500	1.642104
0.725000	1.644333
0.725500	1.646245
0.726000	1.644333
0.726500	1.643059
0.727000	1.644015
0.727500	1.645608
0.728000	1.644652
0.728500	1.642422
0.729000	1.644333
0.729500	1.644970
0.730000	1.644015
0.730500	1.643378
0.731000	1.645608
0.731500	1.645608
0.732000	1.644652
0.732500	1.644015
0.733000	1.644970
0.733500	1.644652
0.734000	1.643696
0.734500	1.644652
0.735000	1.645608
0.735500	1.643696
0.736000	1.644015
0.736500	1.644015
0.737000	1.644970
0.737500	1.644333
0.738000	1.643378
0.738500	1.644970
0.739000	1.644652
0.739500	1.644015
0.740000	1.644333
0.740500	1.645289
0.741000	1.644015
0.741500	1.644652
0.742000	1.644970
0.742500	1.644652
0.743000	1.644333
0.743500	1.643696
0.744000	1.645289
0.744500	1.645289
0.745000	1.644015
0.745500	1.643378
0.746000	1.644970
0.746500	1.645608
0.747000	1.643378
0.747500	1.642741
0.748000	1.645289
0.748500	1.645289
0.749000	1.643059
0.749500	1.643696
0.750000	1.646245
0.750500	1.645289
0.751000	1.642741
0.751500	1.643696
0.752000	1.646245
0.752500	1.644970
0.753000	1.642104
0.753500	1.644015
0.754000	1.647200
0.754500	1.645608
0.755000	1.642104
0.755500	1.644333
0.756000	1.646882
0.756500	1.645289
0.757000	1.641467
0.757500	1.643059
0.758000	1.647200
0.758500	1.645289
0.759000	1.641785
0.759500	1.644015
0.760000	1.646882
0.760500	1.645289
0.761000	1.641785
0.761500	1.644333
0.762000	1.646563
0.762500	1.644652
0.763000	1.642104
0.763500	1.643696
0.764000	1.646882
0.764500	1.644333
0.765000	1.641467
0.765500	1.644015
0.766000	1.646245
0.766500	1.644333
0.767000	1.642422
0.767500	1.644333
0.768000	1.645926
0.768500	1.644970
0.769000	1.643696
0.769500	1.644015
0.770000	1.644970
0.770500	1.643059
0.771000	1.643696
0.771500	1.644652
0.772000	1.644015
0.772500	1.643378
0.773000	1.643696
0.773500	1.644333
0.774000	1.644333
0.774500	1.643696
0.775000	1.643378
0.775500	1.644970
0.776000	1.644652
0.776500	1.643696
0.777000	1.643696
0.777500	1.644652
0.778000	1.644333
0.778500	1.644652
0.779000	1.644333
0.779500	1.644652
0.780000	1.644015
0.780500	1.643696
0.781000	1.644970
0.781500	1.644333
0.782000	1.644015
0.782500	1.644333
0.783000	1.644970
0.783500	1.644015
0.784000	1.642741
0.784500	1.645289
0.785000	1.645289
0.785500	1.643378
0.786000	1.643696
0.786500	1.645608
0.787000	1.645289
0.787500	1.643059
0.788000	1.643696
0.788500	1.646245
0.789000	1.644652
0.789500	1.642422
0.790000	1.642741
0.790500	1.646245
0.791000	1.644970
0.791500	1.642422
0.792000	1.643059
0.792500	1.646245
0.793000	1.644652
0.793500	1.641467
0.794000	1.643696
0.794500	1.646245
0.795000	1.645289
0.795500	1.641148
0.796000	1.643378
0.796500	1.646882
0.797000	1.645926
0.797500	1.641148
0.798000	1.643378
0.798500	1.646245
0.799000	1.645289
0.799500	1.641467
0.800000	1.643378
0.800500	1.646882
0.801000	1.644970
0.801500	1.642104
0.802000	1.644333
0.802500	1.646563
0.803000	1.644970
0.803500	1.642422
0.804000	1.644652
0.804500	1.645926
0.805000	1.644015
0.805500	1.641785
0.806000	1.644333
0.806500	1.646245
0.807000	1.644015
0.807500	1.642422
0.808000	1.645608
0.808500	1.645608
0.809000	1.644015
0.809500	1.644970
0.810000	1.644333
0.810500	1.644652
0.811000	1.643696
0.811500	1.644652
0.812000	1.645289
0.812500	1.644970
0.813000	1.644015
0.813500	1.644970
0.814000	1.645926
0.814500	1.644652
0.815000	1.644333
0.815500	1.645289
0.816000	1.644970
0.816500	1.644652
0.817000	1.644015
0.817500	1.645289
0.818000	1.645289
0.818500	1.644970
0.819000	1.644333
0.819500	1.644970
0.820000	1.644652
0.820500	1.643696
0.821000	1.644652
0.821500	1.645289
0.822000	1.644970
0.822500	1.644333
0.823000	1.645926
0.823500	1.645926
0.824000	1.644333
0.824500	1.644015
0.825000	1.645608
0.825500	1.644970
0.826000	1.643378
0.826500	1.644333
0.827000	1.646245
0.827500	1.644652
0.828000	1.642741
0.828500	1.644333
0.829000	1.647200
0.829500	1.645926
0.830000	1.642104
0.830500	1.643378
0.831000	1.646563
0.831500	1.645289
0.832000	1.641785
0.832500	1.643378
0.833000	1.646882
0.833500	1.645608
0.834000	1.641785
0.834500	1.643059
0.835000	1.647519
0.835500	1.645608
0.836000	1.642104
0.836500	1.643696
0.837000	1.647200
0.837500	1.645926
0.838000	1.642741
0.838500	1.644652
0.839000	1.646882
0.839500	1.645289
0.840000	1.642741
0.840500	1.644970
0.841000	1.645926
0.841500	1.644970
0.842000	1.643059
0.842500	1.644333
0.843000	1.646882
0.843500	1.643696
0.844000	1.643696
0.844500	1.645608
0.845000	1.645289
0.845500	1.644333
0.846000	1.644652
0.846500	1.645289
0.847000	1.644970
0.847500	1.643696
0.848000	1.644333
0.848500	1.644970
0.849000	1.644333
0.849500	1.643696
0.850000	1.644015
0.850500	1.644970
0.851000	1.645289
0.851500	1.644015
0.852000	1.644970
0.852500	1.645926
0.853000	1.644015
0.853500	1.644333
0.854000	1.645608
0.854500	1.645289
0.855000	1.644333
0.855500	1.644970
0.856000	1.645608
0.856500	1.644333
0.857000	1.644015
0.857500	1.645289
0.858000	1.644652
0.858500	1.643378
0.859000	1.643696
0.859500	1.644652
0.860000	1.645289
0.860500	1.643378
0.861000	1.643378
0.861500	1.645926
0.862000	1.645289
0.862500	1.643696
0.863000	1.643696
0.863500	1.645926
0.864000	1.645926
0.864500	1.643059
0.865000	1.643378
0.865500	1.646882
0.866000	1.645926
0.866500	1.642422
0.867000	1.643378
0.867500	1.647200
0.868000	1.645608
0.868500	1.642741
0.869000	1.643378
0.869500	1.646563
0.870000	1.645608
0.870500	1.641785
0.871000	1.643378
0.871500	1.647200
0.872000	1.644333
0.872500	1.641467
0.873000	1.644015
0.873500	1.647837
0.874000	1.645289
0.874500	1.641148
0.875000	1.644652
0.875500	1.646882
0.876000	1.644652
0.876500	1.642422
0.877000	1.644015
0.877500	1.647519
0.878000	1.644970
0.878500	1.642422
0.879000	1.644333
0.879500	1.647519
0.880000	1.644652
0.880500	1.642741
0.881000	1.644333
0.881500	1.646245
0.882000	1.644015
0.882500	1.644015
0.883000	1.644970
0.883500	1.645926
0.884000	1.644333
0.884500	1.643378
0.885000	1.644652
0.885500	1.645608
0.886000	1.643696
0.886500	1.644015
0.887000	1.644652
0.887500	1.645289
0.888000	1.643378
0.888500	1.643696
0.889000	1.645608
0.889500	1.644970
0.890000	1.643696
0.890500	1.644333
0.891000	1.645289
0.891500	1.644970
0.892000	1.644015
0.892500	1.644333
0.893000	1.645289
0.893500	1.644333
0.894000	1.644015
0.894500	1.645608
0.895000	1.644970
0.895500	1.644333
0.896000	1.644970
0.896500	1.645926
0.897000	1.645289
0.897500	1.644970
0.898000	1.645289
0.898500	1.644970
0.899000	1.644970
0.899500	1.644333
0.900000	1.645608
0.900500	1.645608
0.901000	1.644652
0.901500	1.644333
0.902000	1.645608
0.902500	1.646245
0.903000	1.643696
0.903500	1.644333
0.904000	1.646563
0.904500	1.645926
0.905000	1.643696
0.905500	1.644015
0.906000	1.646882
0.906500	1.646245
0.907000	1.643696
0.907500	1.644015
0.908000	1.647837
0.908500	1.646245
0.909000	1.642741
0.909500	1.644970
0.910000	1.647200
0.910500	1.646245
0.911000	1.641785
0.911500	1.644652
0.912000	1.647837
0.912500	1.646245
0.913000	1.642422
0.913500	1.644333
0.914000	1.648156
0.914500	1.645289
0.915000	1.642422
0.915500	1.644333
0.916000	1.648156
0.916500	1.645289
0.917000	1.642741
0.917500	1.644333
0.918000	1.648156
0.918500	1.645926
0.919000	1.643378
0.919500	1.644652
0.920000	1.647200
0.920500	1.645608
0.921000	1.642741
0.921500	1.644970
0.922000	1.646882
0.922500	1.645608
0.923000	1.643696
0.923500	1.645289
0.924000	1.646245
0.924500	1.644652
0.925000	1.643378
0.925500	1.645289
0.926000	1.646563
0.926500	1.644333
0.927000	1.644015
0.927500	1.645926
0.928000	1.645289
0.928500	1.644970
0.929000	1.644333
0.929500	1.644333
0.930000	1.645608
0.930500	1.644652
0.931000	1.644015
0.931500	1.644970
0.932000	1.644970
0.932500	1.644333
0.933000	1.645608
0.933500	1.645608
0.934000	1.644970
0.934500	1.644652
0.935000	1.644333
0.935500	1.645289
0.936000	1.644333
0.936500	1.644970
0.937000	1.645289
0.937500	1.644333
0.938000	1.644333
0.938500	1.644652
0.939000	1.645289
0.939500	1.644652
0.940000	1.643696
0.940500	1.645289
0.941000	1.644333
0.941500	1.644015
0.942000	1.643696
0.942500	1.645926
0.943000	1.645608
0.943500	1.643696
0.944000	1.643696
0.944500	1.645926
0.945000	1.644652
0.945500	1.643059
0.946000	1.643696
0.946500	1.646245
0.947000	1.645608
0.947500	1.642104
0.948000	1.643696
0.948500	1.646882
0.949000	1.645926
0.949500	1.642104
0.950000	1.644015
0.950500	1.646563
0.951000	1.645608
0.951500	1.642104
0.952000	1.643696
0.952500	1.647837
0.953000	1.645289
0.953500	1.642422
0.954000	1.643696
0.954500	1.647837
0.955000	1.644970
0.955500	1.642104
0.956000	1.644015
0.956500	1.646882
0.957000	1.645608
0.957500	1.642104
0.958000	1.644333
0.958500	1.647837
0.959000	1.645289
0.959500	1.642104
0.960000	1.644333
0.960500	1.647519
0.961000	1.644970
0.961500	1.642422
0.962000	1.644333
0.962500	1.647200
0.963000	1.644652
0.963500	1.642741
0.964000	1.644015
0.964500	1.645926
0.965000	1.644333
0.965500	1.643059
0.966000	1.644970
0.966500	1.646245
0.967000	1.644015
0.967500	1.643696
0.968000	1.644970
0.968500	1.645926
0.969000	1.644333
0.969500	1.643696
0.970000	1.644333
0.970500	1.645608
0.971000	1.643696
0.971500	1.644652
0.972000	1.644970
0.972500	1.644333
0.973000	1.645289
0.973500	1.644652
0.974000	1.645926
0.974500	1.644015
0.975000	1.643696
0.975500	1.644970
0.976000	1.644970
0.976500	1.644015
0.977000	1.645289
0.977500	1.644652
0.978000	1.644970
0.978500	1.644652
0.979000	1.644970
0.979500	1.645608
0.980000	1.645289
0.980500	1.645289
0.981000	1.645289
0.981500	1.645289
0.982000	1.644333
0.982500	1.644333
0.983000	1.645289
0.983500	1.645289
0.984000	1.643696
0.984500	1.643059
0.985000	1.646245
0.985500	1.645608
0.986000	1.643378
0.986500	1.644015
0.987000	1.645926
0.987500	1.646563
0.988000	1.642741
0.988500	1.643059
0.989000	1.646245
0.989500	1.645289
0.990000	1.642422
0.990500	1.644015
0.991000	1.646563
0.991500	1.645289
0.992000	1.642104
0.992500	1.643696
0.993000	1.646882
0.993500	1.645926
0.994000	1.641785
0.994500	1.643059
0.995000	1.646245
0.995500	1.645289
0.996000	1.641467
0.996500	1.642741
0.997000	1.646882
0.997500	1.644970
0.998000	1.640511
0.998500	1.643378
0.999000	1.646563
0.999500	1.644970
1.000000	1.642422
1.000500	1.643059
1.001000	1.646563
1.001500	1.644333
1.002000	1.641785
1.002500	1.643378
1.003000	1.645608
1.003500	1.644333
1.004000	1.642104
1.004500	1.643696
1.005000	1.645289
1.005500	1.643696
1.006000	1.641785
1.006500	1.644015
1.007000	1.645289
1.007500	1.642422
1.008000	1.643059
1.008500	1.644015
1.009000	1.644015
1.009500	1.643059
1.010000	1.642422
1.010500	1.643696
1.011000	1.644015
1.011500	1.643059
1.012000	1.644015
1.012500	1.644015
1.013000	1.643059
1.013500	1.643378
1.014000	1.644333
1.014500	1.644333
1.015000	1.643378
1.015500	1.643696
1.016000	1.644015
1.016500	1.644652
1.017000	1.643696
1.017500	1.643696
1.018000	1.644652
1.018500	1.644015
1.019000	1.643059
1.019500	1.643378
1.020000	1.645289
1.020500	1.643696
1.021000	1.643378
1.021500	1.644333
1.022000	1.644652
1.022500	1.642422
1.023000	1.644333
1.023500	1.645289
1.024000	1.645289
1.024500	1.642741
1.025000	1.643378
1.025500	1.646245
1.026000	1.645289
1.026500	1.642104
1.027000	1.643059
1.027500	1.646563
1.028000	1.644652
1.028500	1.642422
1.029000	1.642741
1.029500	1.646563
1.030000	1.644333
1.030500	1.641785
1.031000	1.642422
1.031500	1.646563
1.032000	1.644970
1.032500	1.641785
1.033000	1.643696
1.033500	1.646882
1.034000	1.645608
1.034500	1.641467
1.035000	1.643378
1.035500	1.646882
1.036000	1.644970
1.036500	1.641785
1.037000	1.644333
1.037500	1.646882
1.038000	1.644333
1.038500	1.641785
1.039000	1.644652
1.039500	1.646245
1.040000	1.644333
1.040500	1.642104
1.041000	1.644015
1.041500	1.646245
1.042000	1.644333
1.042500	1.642422
1.043000	1.644970
1.043500	1.645608
1.044000	1.645289
1.044500	1.643059
1.045000	1.645289
1.045500	1.644970
1.046000	1.644652
1.046500	1.643378
1.047000	1.645926
1.047500	1.645289
1.048000	1.644652
1.048500	1.644652
1.049000	1.645289
1.049500	1.644652
1.050000	1.644333
1.050500	1.644015
1.051000	1.645608
1.051500	1.645289
1.052000	1.643696
1.052500	1.644015
1.053000	1.645926
1.053500	1.644970
1.054000	1.645289
1.054500	1.644652
1.055000	1.645608
1.055500	1.644652
1.056000	1.644652
1.056500	1.644970
1.057000	1.645608
1.057500	1.644652
1.058000	1.644652
1.058500	1.645608
1.059000	1.644970
1.059500	1.644015
1.060000	1.644652
1.060500	1.644333
1.061000	1.644970
1.061500	1.644333
1.062000	1.645608
1.062500	1.645926
1.063000	1.643696
1.063500	1.644652
1.064000	1.645926
1.064500	1.645608
1.065000	1.643378
1.065500	1.644015
1.066000	1.647200
1.066500	1.646563
1.067000	1.643059
1.067500	1.644333
1.068000	1.647519
1.068500	1.644970
1.069000	1.642104
1.069500	1.643696
1.070000	1.648156
1.070500	1.645608
1.071000	1.642104
1.071500	1.644015
1.072000	1.648156
1.072500	1.644970
1.073000	1.641785
1.073500	1.644652
1.074000	1.648793
1.074500	1.646245
1.075000	1.641785
1.075500	1.644015
1.076000	1.647519
1.076500	1.645289
1.077000	1.641785
1.077500	1.644970
1.078000	1.647837
1.078500	1.645608
1.079000	1.643059
1.079500	1.644652
1.080000	1.647200
1.080500	1.645608
1.081000	1.643378
1.081500	1.644970
1.082000	1.645926
1.082500	1.644970
1.083000	1.643059
1.083500	1.645289
1.084000	1.645926
1.084500	1.644015
1.085000	1.643696
1.085500	1.645608
1.086000	1.645926
1.086500	1.644652
1.087000	1.644015
1.087500	1.644652
1.088000	1.645289
1.088500	1.643696
1.089000	1.644652
1.089500	1.644970
1.090000	1.644970
1.090500	1.644333
1.091000	1.644015
1.091500	1.645926
1.092000	1.644652
1.092500	1.644333
1.093000	1.644333
1.093500	1.645289
1.094000	1.644652
1.094500	1.644970
1.095000	1.645289
1.095500	1.644970
1.096000	1.643696
1.096500	1.644970
1.097000	1.644652
1.097500	1.644970
1.098000	1.644652
1.098500	1.644970
1.099000	1.645608
1.099500	1.644015
1.100000	1.644333
1.100500	1.645608
1.101000	1.645608
1.101500	1.643378
1.102000	1.643696
1.102500	1.645926
1.103000	1.645608
1.103500	1.642422
1.104000	1.643696
1.104500	1.646245
1.105000	1.644333
1.105500	1.643059
1.106000	1.643059
1.106500	1.646882
1.107000	1.644970
1.107500	1.642104
1.108000	1.643378
1.108500	1.647519
1.109000	1.645289
1.109500	1.642104
1.110000	1.643378
1.110500	1.648474
1.111000	1.645608
1.111500	1.641785
1.112000	1.644333
1.112500	1.646882
1.113000	1.645608
1.113500	1.641785
1.114000	1.644333
1.114500	1.646882
1.115000	1.644970
1.115500	1.642422
1.116000	1.645289
1.116500	1.646882
1.117000	1.644015
1.117500	1.642422
1.118000	1.644333
1.118500	1.646882
1.119000	1.644970
1.119500	1.643696
1.120000	1.644652
1.120500	1.645608
1.121000	1.644970
1.121500	1.643696
1.122000	1.644970
1.122500	1.644652
1.123000	1.644333
1.123500	1.643378
1.124000	1.644652
1.124500	1.645289
1.125000	1.644970
1.125500	1.644015
1.126000	1.644970
1.126500	1.644970
1.127000	1.643059
1.127500	1.644333
1.128000	1.645289
1.128500	1.644333
1.129000	1.644652
1.129500	1.644652
1.130000	1.644652
1.130500	1.644652
1.131000	1.644015
1.131500	1.645289
1.132000	1.644652
1.132500	1.644015
1.133000	1.644970
1.133500	1.644652
1.134000	1.644652
1.134500	1.644333
1.135000	1.644652
1.135500	1.645289
1.136000	1.644970
1.136500	1.644015
1.137000	1.645289
1.137500	1.644652
1.138000	1.643696
1.138500	1.644015
1.139000	1.645608
1.139500	1.645608
1.140000	1.644015
1.140500	1.644333
1.141000	1.645926
1.141500	1.645926
1.142000	1.643696
1.142500	1.644652
1.143000	1.646882
1.143500	1.645289
1.144000	1.643696
1.144500	1.643696
1.145000	1.646245
1.145500	1.645926
1.146000	1.644015
1.146500	1.643696
1.147000	1.647200
1.147500	1.646245
1.148000	1.642104
1.148500	1.643059
1.149000	1.647200
1.149500	1.644970
1.150000	1.642104
1.150500	1.643378
1.151000	1.647200
1.151500	1.645926
1.152000	1.642104
1.152500	1.644015
1.153000	1.646882
1.153500	1.644652
1.154000	1.642104
1.154500	1.644333
1.155000	1.647519
1.155500	1.645608
1.156000	1.641785
1.156500	1.643696
1.157000	1.647519
1.157500	1.645608
1.158000	1.642104
1.158500	1.644333
1.159000	1.645926
1.159500	1.645289
1.160000	1.642422
1.160500	1.644970
1.161000	1.646563
1.161500	1.644333
1.162000	1.642741
1.162500	1.644333
1.163000	1.646245
1.163500	1.644652
1.164000	1.643059
1.164500	1.644970
1.165000	1.645926
1.165500	1.644015
1.166000	1.644015
1.166500	1.647200
1.167000	1.645608
1.167500	1.643696
1.168000	1.644333
1.168500	1.645608
1.169000	1.644652
1.169500	1.644333
1.170000	1.643696
1.170500	1.644652
1.171000	1.643696
1.171500	1.644333
1.172000	1.644652
1.172500	1.645289
1.173000	1.644333
1.173500	1.644333
1.174000	1.644652
1.174500	1.644652
1.175000	1.644970
1.175500	1.644015
1.176000	1.644970
1.176500	1.644970
1.177000	1.643059
1.177500	1.644652
1.178000	1.645289
1.178500	1.644015
1.179000	1.643378
1.179500	1.645608
1.180000	1.644970
1.180500	1.644015
1.181000	1.643378
1.181500	1.645289
1.182000	1.645289
1.182500	1.643378
1.183000	1.643378
1.183500	1.645289
1.184000	1.644970
1.184500	1.642741
1.185000	1.643696
1.185500	1.646563
1.186000	1.645289
1.186500	1.642104
1.187000	1.644333
1.187500	1.646882
1.188000	1.646245
1.188500	1.642422
1.189000	1.643059
1.189500	1.646882
1.190000	1.645289
1.190500	1.641148
1.191000	1.643378
1.191500	1.646245
1.192000	1.644970
1.192500	1.641785
1.193000	1.643696
1.193500	1.647200
1.194000	1.645608
1.194500	1.641467
1.195000	1.643378
1.195500	1.647837
1.196000	1.645608
1.196500	1.641785
1.197000	1.643378
1.197500	1.648156
1.198000	1.645289
1.198500	1.642422
1.199000	1.644970
1.199500	1.647837
1.200000	1.644970
1.200500	1.642741
1.201000	1.644652
1.201500	1.646882
1.202000	1.644652
1.202500	1.644015
1.203000	1.644652
1.203500	1.646563
1.204000	1.644333
1.204500	1.643059
1.205000	1.645289
1.205500	1.646245
1.206000	1.644652
1.206500	1.643696
1.207000	1.645608
1.207500	1.646245
1.208000	1.644652
1.208500	1.643378
1.209000	1.644652
1.209500	1.645608
1.210000	1.644970
1.210500	1.644970
1.211000	1.645608
1.211500	1.645608
1.212000	1.644652
1.212500	1.644652
1.213000	1.645608
1.213500	1.644970
1.214000	1.644652
1.214500	1.644333
1.215000	1.645289
1.215500	1.645289
1.216000	1.644333
1.216500	1.644970
1.217000	1.645289
1.217500	1.644333
1.218000	1.644970
1.218500	1.645289
1.219000	1.644652
1.219500	1.644652
1.220000	1.644652
1.220500	1.645926
1.221000	1.644652
1.221500	1.644333
1.222000	1.644970
1.222500	1.644970
1.223000	1.644652
1.223500	1.644652
1.224000	1.646245
1.224500	1.645608
1.225000	1.644015
1.225500	1.644970
1.226000	1.646245
1.226500	1.645608
1.227000	1.644015
1.227500	1.644015
1.228000	1.647200
1.228500	1.645608
1.229000	1.642422
1.229500	1.643378
1.230000	1.647519
1.230500	1.645608
1.231000	1.642104
1.231500	1.644015
1.232000	1.648156
1.232500	1.645926
1.233000	1.642422
1.233500	1.644333
1.234000	1.647519
1.234500	1.644970
1.235000	1.642104
1.235500	1.644015
1.236000	1.648156
1.236500	1.645608
1.237000	1.642104
1.237500	1.643378
1.238000	1.647837
1.238500	1.644970
1.239000	1.641785
1.239500	1.643696
1.240000	1.647200
1.240500	1.645289
1.241000	1.641785
1.241500	1.643696
1.242000	1.647200
1.242500	1.644652
1.243000	1.642422
1.243500	1.644333
1.244000	1.647519
1.244500	1.644333
1.245000	1.642741
1.245500	1.645289
1.246000	1.646563
1.246500	1.644652
1.247000	1.641785
1.247500	1.644333
1.248000	1.645608
1.248500	1.644015
1.249000	1.643696
1.249500	1.644652
1.250000	1.645289
1.250500	1.643696
1.251000	1.642104
1.251500	1.644333
1.252000	1.644652
1.252500	1.643696
1.253000	1.642741
1.253500	1.644652
1.254000	1.644970
1.254500	1.643059
1.255000	1.644015
1.255500	1.644333
1.256000	1.644652
1.256500	1.644333
1.257000	1.643696
1.257500	1.644970
1.258000	1.644333
1.258500	1.643696
1.259000	1.644015
1.259500	1.644970
1.260000	1.643696
1.260500	1.644015
1.261000	1.644970
1.261500	1.644970
1.262000	1.643696
1.262500	1.643378
1.263000	1.645289
1.263500	1.644333
1.264000	1.644970
1.264500	1.644015
1.265000	1.645608
1.265500	1.645289
1.266000	1.644015
1.266500	1.644652
1.267000	1.644970
1.267500	1.643378
1.268000	1.644652
1.268500	1.644970
1.269000	1.645608
1.269500	1.643378
1.270000	1.643378
1.270500	1.645926
1.271000	1.644970
1.271500	1.643696
1.272000	1.643696
1.272500	1.646245
1.273000	1.645289
1.273500	1.643378
1.274000	1.644015
1.274500	1.646245
1.275000	1.646245
1.275500	1.643059
1.276000	1.644015
1.276500	1.646563
1.277000	1.645608
1.277500	1.642104
1.278000	1.644333
1.278500	1.648474
1.279000	1.645926
1.279500	1.641785
1.280000	1.644015
1.280500	1.647837
1.281000	1.645608
1.281500	1.642104
1.282000	1.643696
1.282500	1.647519
1.283000	1.646245
1.283500	1.642422
1.284000	1.644652
1.284500	1.648156
1.285000	1.645289
1.285500	1.642741
1.286000	1.644970
1.286500	1.647519
1.287000	1.645608
1.287500	1.642422
1.288000	1.644015
1.288500	1.647519
1.289000	1.645289
1.289500	1.642741
1.290000	1.644652
1.290500	1.646563
1.291000	1.645289
1.291500	1.642741
1.292000	1.645289
1.292500	1.646563
1.293000	1.644970
1.293500	1.643059
1.294000	1.644970
1.294500	1.646563
1.295000	1.644333
1.295500	1.644015
1.296000	1.645608
1.296500	1.646245
1.297000	1.644015
1.297500	1.644333
1.298000	1.645289
1.298500	1.644652
1.299000	1.645289
1.299500	1.644015
1.300000	1.644970
1.300500	1.645608
1.301000	1.644333
1.301500	1.644970
1.302000	1.645608
1.302500	1.645608
1.303000	1.644652
1.303500	1.644970
1.304000	1.645926
1.304500	1.644970
1.305000	1.644652
1.305500	1.644333
1.306000	1.645608
1.306500	1.644970
1.307000	1.644333
1.307500	1.645289
1.308000	1.645289
1.308500	1.644652
1.309000	1.644015
1.309500	1.645608
1.310000	1.644652
1.310500	1.644652
1.311000	1.644970
1.311500	1.645289
1.312000	1.645289
1.312500	1.643696
1.313000	1.644652
1.313500	1.645608
1.314000	1.645608
1.314500	1.644970
1.315000	1.645289
1.315500	1.645289
1.316000	1.643378
1.316500	1.644652
1.317000	1.645608
1.317500	1.645289
1.318000	1.644015
1.318500	1.644015
1.319000	1.646245
1.319500	1.645289
1.320000	1.643696
1.320500	1.644015
1.321000	1.645608
1.321500	1.646245
1.322000	1.643059
1.322500	1.644015
1.323000	1.647519
1.323500	1.645289
1.324000	1.643059
1.324500	1.644333
1.325000	1.647200
1.325500	1.645608
1.326000	1.642741
1.326500	1.643696
1.327000	1.647200
1.327500	1.644970
1.328000	1.641785
1.328500	1.643696
1.329000	1.647200
1.329500	1.645608
1.330000	1.642422
1.330500	1.643378
1.331000	1.647200
1.331500	1.644333
1.332000	1.641785
1.332500	1.644015
1.333000	1.647200
1.333500	1.645289
1.334000	1.642422
1.334500	1.643378
1.335000	1.647200
1.335500	1.645608
1.336000	1.642422
1.336500	1.644015
1.337000	1.646882
1.337500	1.644652
1.338000	1.642422
1.338500	1.644015
1.339000	1.647200
1.339500	1.644652
1.340000	1.642104
1.340500	1.644015
1.341000	1.645289
1.341500	1.643696
1.342000	1.643378
1.342500	1.644652
1.343000	1.645926
1.343500	1.644652
1.344000	1.642741
1.344500	1.645289
1.345000	1.645608
1.345500	1.643696
1.346000	1.644333
1.346500	1.644333
1.347000	1.645608
1.347500	1.644015
1.348000	1.643059
1.348500	1.644652
1.349000	1.644970
1.349500	1.643696
1.350000	1.644015
1.350500	1.644333
1.351000	1.644015
1.351500	1.643696
1.352000	1.644333
1.352500	1.645608
1.353000	1.643378
1.353500	1.644015
1.354000	1.644652
1.354500	1.644970
1.355000	1.644652
1.355500	1.643696
1.356000	1.644970
1.356500	1.644652
1.357000	1.644015
1.357500	1.643696
1.358000	1.644652
1.358500	1.643378
1.359000	1.643059
1.359500	1.644333
1.360000	1.644652
1.360500	1.643378
1.361000	1.643378
1.361500	1.644652
1.362000	1.644970
1.362500	1.643059
1.363000	1.642741
1.363500	1.646245
1.364000	1.645289
1.364500	1.641785
1.365000	1.642104
1.365500	1.645608
1.366000	1.644970
1.366500	1.642422
1.367000	1.643059
1.367500	1.646245
1.368000	1.644970
1.368500	1.642104
1.369000	1.643696
1.369500	1.646563
1.370000	1.644970
1.370500	1.641148
1.371000	1.643696
1.371500	1.647519
1.372000	1.644970
1.372500	1.642104
1.373000	1.644015
1.373500	1.648156
1.374000	1.644333
1.374500	1.641785
1.375000	1.643696
1.375500	1.646882
1.376000	1.644652
1.376500	1.641467
1.377000	1.643696
1.377500	1.647200
1.378000	1.644652
1.378500	1.642741
1.379000	1.643696
1.379500	1.645926
1.380000	1.644333
1.380500	1.642422
1.381000	1.644015
1.381500	1.645926
1.382000	1.644652
1.382500	1.642741
1.383000	1.644333
1.383500	1.645926
1.384000	1.644333
1.384500	1.644015
1.385000	1.644652
1.385500	1.645289
1.386000	1.644333
1.386500	1.643378
1.387000	1.645289
1.387500	1.646563
1.388000	1.644015
1.388500	1.643696
1.389000	1.645608
1.389500	1.645289
1.390000	1.643696
1.390500	1.643696
1.391000	1.644652
1.391500	1.645289
1.392000	1.643059
1.392500	1.644652
1.393000	1.645289
1.393500	1.644652
1.394000	1.644333
1.394500	1.643696
1.395000	1.644652
1.395500	1.644652
1.396000	1.644015
1.396500	1.644652
1.397000	1.644970
1.397500	1.644652
1.398000	1.643696
1.398500	1.644970
1.399000	1.645608
1.399500	1.644015
1.400000	1.644333
1.400500	1.644015
1.401000	1.644333
1.401500	1.643696
1.402000	1.643378
1.402500	1.645289
1.403000	1.644015
1.403500	1.642741
1.404000	1.644970
1.404500	1.644015
1.405000	1.643696
1.405500	1.643378
1.406000	1.645289
1.406500	1.644652
1.407000	1.643696
1.407500	1.644015
1.408000	1.645608
1.408500	1.645289
1.409000	1.644015
1.409500	1.643378
1.410000	1.645926
1.410500	1.645289
1.411000	1.642741
1.411500	1.643059
1.412000	1.646245
1.412500	1.645289
1.413000	1.641148
1.413500	1.643059
1.414000	1.646563
1.414500	1.645289
1.415000	1.641785
1.415500	1.643696
1.416000	1.646245
1.416500	1.644970
1.417000	1.641467
1.417500	1.643059
1.418000	1.647200
1.418500	1.645289
1.419000	1.642104
1.419500	1.643059
1.420000	1.647519
1.420500	1.644970
1.421000	1.641148
1.421500	1.643378
1.422000	1.647519
1.422500	1.644970
1.423000	1.642104
1.423500	1.644333
1.424000	1.646245
1.424500	1.644652
1.425000	1.641148
1.425500	1.644333
1.426000	1.646563
1.426500	1.644970
1.427000	1.642104
1.427500	1.644015
1.428000	1.646563
1.428500	1.644652
1.429000	1.642422
1.429500	1.644333
1.430000	1.645608
1.430500	1.644333
1.431000	1.642422
1.431500	1.645289
1.432000	1.645608
1.432500	1.644015
1.433000	1.643696
1.433500	1.644333
1.434000	1.645608
1.434500	1.644333
1.435000	1.643059
1.435500	1.645289
1.436000	1.644652
1.436500	1.643696
1.437000	1.643378
1.437500	1.645608
1.438000	1.644652
1.438500	1.643378
1.439000	1.643696
1.439500	1.645608
1.440000	1.644652
1.440500	1.644015
1.441000	1.643696
1.441500	1.645289
1.442000	1.644015
1.442500	1.644333
1.443000	1.644970
1.443500	1.644333
1.444000	1.643378
1.444500	1.644333
1.445000	1.645289
1.445500	1.644970
1.446000	1.644015
1.446500	1.645289
1.447000	1.644970
1.447500	1.644652
1.448000	1.645289
1.448500	1.645289
1.449000	1.645926
1.449500	1.643378
1.450000	1.644015
1.450500	1.645926
1.451000	1.644652
1.451500	1.643059
1.452000	1.643378
1.452500	1.646563
1.453000	1.645289
1.453500	1.642422
1.454000	1.644333
1.454500	1.646245
1.455000	1.645608
1.455500	1.642741
1.456000	1.643696
1.456500	1.647837
1.457000	1.645926
1.457500	1.642104
1.458000	1.643378
1.458500	1.647200
1.459000	1.645608
1.459500	1.641785
1.460000	1.643378
1.460500	1.647519
1.461000	1.645289
1.461500	1.641785
1.462000	1.644333
1.462500	1.647837
1.463000	1.645289
1.463500	1.641785
1.464000	1.644970
1.464500	1.647837
1.465000	1.644970
1.465500	1.642422
1.466000	1.644333
1.466500	1.647519
1.467000	1.645289
1.467500	1.642422
1.468000	1.644333
1.468500	1.647200
1.469000	1.645926
1.469500	1.641785
1.470000	1.644652
1.470500	1.646563
1.471000	1.644970
1.471500	1.642422
1.472000	1.644652
1.472500	1.646245
1.473000	1.644015
1.473500	1.642741
1.474000	1.645289
1.474500	1.645926
1.475000	1.643696
1.475500	1.643696
1.476000	1.645608
1.476500	1.645289
1.477000	1.643696
1.477500	1.643696
1.478000	1.644970
1.478500	1.645289
1.479000	1.643696
1.479500	1.643378
1.480000	1.644970
1.480500	1.644652
1.481000	1.642741
1.481500	1.644015
1.482000	1.644333
1.482500	1.643378
1.483000	1.643378
1.483500	1.644333
1.484000	1.644333
1.484500	1.643696
1.485000	1.644015
1.485500	1.643378
1.486000	1.644333
1.486500	1.644015
1.487000	1.643059
1.487500	1.644652
1.488000	1.644652
1.488500	1.643696
1.489000	1.643696
1.489500	1.643696
1.490000	1.644015
1.490500	1.643378
1.491000	1.643378
1.491500	1.644015
1.492000	1.643378
1.492500	1.642741
1.493000	1.643059
1.493500	1.644015
1.494000	1.644333
1.494500	1.642741
1.495000	1.643378
1.495500	1.644333
1.496000	1.643059
1.496500	1.643696
1.497000	1.644652
1.497500	1.644970
1.498000	1.643696
1.498500	1.643059
1.499000	1.644652
1.499500	1.643696
1.500000	1.643378
1.500500	1.642741
1.501000	1.645289
1.501500	1.644333
1.502000	1.641467
1.502500	1.643378
1.503000	1.645289
1.503500	1.644015
1.504000	1.641148
1.504500	1.642422
1.505000	1.645926
1.505500	1.644970
1.506000	1.641148
1.506500	1.642741
1.507000	1.645926
1.507500	1.645289
1.508000	1.641785
1.508500	1.643378
1.509000	1.646245
1.509500	1.644015
1.510000	1.640511
1.510500	1.642741
1.511000	1.646563
1.511500	1.644970
1.512000	1.641148
1.512500	1.642741
1.513000	1.647200
1.513500	1.644333
1.514000	1.642104
1.514500	1.644333
1.515000	1.646563
1.515500	1.644652
1.516000	1.642104
1.516500	1.643378
1.517000	1.645926
1.517500	1.644970
1.518000	1.641785
1.518500	1.643696
1.519000	1.646245
1.519500	1.644015
1.520000	1.641785
1.520500	1.644970
1.521000	1.645926
1.521500	1.644015
1.522000	1.642104
1.522500	1.644333
1.523000	1.646563
1.523500	1.644333
1.524000	1.643378
1.524500	1.644015
1.525000	1.644970
1.525500	1.643378
1.526000	1.643378
1.526500	1.644652
1.527000	1.645289
1.527500	1.644333
1.528000	1.643378
1.528500	1.645289
1.529000	1.644652
1.529500	1.643378
1.530000	1.643696
1.530500	1.644970
1.531000	1.644652
1.531500	1.642741
1.532000	1.643378
1.532500	1.644652
1.533000	1.644652
1.533500	1.644015
1.534000	1.644015
1.534500	1.644652
1.535000	1.644970
1.535500	1.644333
1.536000	1.644333
1.536500	1.645289
1.537000	1.644652
1.537500	1.644015
1.538000	1.644015
1.538500	1.644970
1.539000	1.644652
1.539500	1.644015
1.540000	1.645289
1.540500	1.644652
1.541000	1.644652
1.541500	1.644333
1.542000	1.644970
1.542500	1.644015
1.543000	1.644015
1.543500	1.644333
1.544000	1.644970
1.544500	1.643696
1.545000	1.645608
1.545500	1.645289
1.546000	1.645289
1.546500	1.643378
1.547000	1.642741
1.547500	1.644970
1.548000	1.645289
1.548500	1.643378
1.549000	1.643378
1.549500	1.645926
1.550000	1.645289
1.550500	1.642741
1.551000	1.643378
1.551500	1.645289
1.552000	1.645289
1.552500	1.642422
1.553000	1.644333
1.553500	1.645926
1.554000	1.645608
1.554500	1.642422
1.555000	1.643378
1.555500	1.646882
1.556000	1.644652
1.556500	1.641785
1.557000	1.643378
1.557500	1.646882
1.558000	1.644652
1.558500	1.642104
1.559000	1.643696
1.559500	1.646245
1.560000	1.644970
1.560500	1.640829
1.561000	1.643378
1.561500	1.645926
1.562000	1.644652
1.562500	1.640829
1.563000	1.643059
1.563500	1.647200
1.564000	1.644652
1.564500	1.641148
1.565000	1.642422
1.565500	1.647200
1.566000	1.644652
1.566500	1.642104
1.567000	1.644015
1.567500	1.646563
1.568000	1.644652
1.568500	1.642422
1.569000	1.643696
1.569500	1.645608
1.570000	1.644333
1.570500	1.641467
1.571000	1.643696
1.571500	1.646563
1.572000	1.643696
1.572500	1.642422
1.573000	1.643378
1.573500	1.645926
1.574000	1.644015
1.574500	1.642104
1.575000	1.643378
1.575500	1.645608
1.576000	1.644333
1.576500	1.643059
1.577000	1.644015
1.577500	1.645289
1.578000	1.643059
1.578500	1.643059
1.579000	1.643696
1.579500	1.645289
1.580000	1.644015
1.580500	1.644015
1.581000	1.645289
1.581500	1.644015
1.582000	1.643059
1.582500	1.644015
1.583000	1.644652
1.583500	1.644015
1.584000	1.644333
1.584500	1.644015
1.585000	1.644970
1.585500	1.644015
1.586000	1.643696
1.586500	1.644333
1.587000	1.644970
1.587500	1.644333
1.588000	1.644015
1.588500	1.643378
1.589000	1.644652
1.589500	1.643696
1.590000	1.643696
1.590500	1.644333
1.591000	1.644652
1.591500	1.643378
1.592000	1.644015
1.592500	1.644015
1.593000	1.644333
1.593500	1.644015
1.594000	1.644333
1.594500	1.644652
1.595000	1.643696
1.595500	1.643696
1.596000	1.645289
1.596500	1.645289
1.597000	1.643696
1.597500	1.643696
1.598000	1.645926
1.598500	1.644652
1.599000	1.643378
1.599500	1.643059
1.600000	1.645926
1.600500	1.645289
1.601000	1.642422
1.601500	1.643696
1.602000	1.646245
1.602500	1.645926
1.603000	1.642741
1.603500	1.643059
1.604000	1.646563
1.604500	1.644652
1.605000	1.642104
1.605500	1.643378
1.606000	1.646882
1.606500	1.646245
1.607000	1.642104
1.607500	1.644333
1.608000	1.648156
1.608500	1.645608
1.609000	1.641467
1.609500	1.643696
1.610000	1.648156
1.610500	1.645289
1.611000	1.642104
1.611500	1.644333
1.612000	1.647837
1.612500	1.645926
1.613000	1.642741
1.613500	1.644333
1.614000	1.646563
1.614500	1.644970
1.615000	1.641785
1.615500	1.644333
1.616000	1.646563
1.616500	1.644015
1.617000	1.642104
1.617500	1.644015
1.618000	1.646563
1.618500	1.644015
1.619000	1.642741
1.619500	1.644333
1.620000	1.647200
1.620500	1.644333
1.621000	1.643059
1.621500	1.644970
1.622000	1.645926
1.622500	1.644333
1.623000	1.642422
1.623500	1.645289
1.624000	1.645926
1.624500	1.644652
1.625000	1.643696
1.625500	1.644652
1.626000	1.645926
1.626500	1.644015
1.627000	1.643059
1.627500	1.644652
1.628000	1.644970
1.628500	1.643696
1.629000	1.644333
1.629500	1.644652
1.630000	1.644333
1.630500	1.643378
1.631000	1.644333
1.631500	1.645289
1.632000	1.644015
1.632500	1.644333
1.633000	1.644015
1.633500	1.644970
1.634000	1.644652
1.634500	1.644015
1.635000	1.644652
1.635500	1.644652
1.636000	1.644333
1.636500	1.644015
1.637000	1.644333
1.637500	1.644652
1.638000	1.643696
1.638500	1.644652
1.639000	1.645608
1.639500	1.643696
1.640000	1.643378
1.640500	1.644333
1.641000	1.644333
1.641500	1.644015
1.642000	1.643696
1.642500	1.643696
1.643000	1.645289
1.643500	1.643378
1.644000	1.643059
1.644500	1.645289
1.645000	1.645608
1.645500	1.643378
1.646000	1.644333
1.646500	1.645926
1.647000	1.645289
1.647500	1.643059
1.648000	1.643378
1.648500	1.646563
1.649000	1.644652
1.649500	1.642104
1.650000	1.643696
1.650500	1.646245
1.651000	1.644970
1.651500	1.641785
1.652000	1.642422
1.652500	1.646563
1.653000	1.644970
1.653500	1.641467
1.654000	1.643378
1.654500	1.647519
1.655000	1.645289
1.655500	1.641785
1.656000	1.643696
1.656500	1.646882
1.657000	1.645289
1.657500	1.642422
1.658000	1.642741
1.658500	1.646882
1.659000	1.644970
1.659500	1.641467
1.660000	1.644015
1.660500	1.647519
1.661000	1.644970
1.661500	1.641467
1.662000	1.643378
1.662500	1.646882
1.663000	1.645289
1.663500	1.641467
1.664000	1.644015
1.664500	1.647200
1.665000	1.644652
1.665500	1.642422
1.666000	1.644333
1.666500	1.646882
1.667000	1.644970
1.667500	1.642422
1.668000	1.643696
1.668500	1.645926
1.669000	1.644652
1.669500	1.642422
1.670000	1.644970
1.670500	1.645289
1.671000	1.644333
1.671500	1.644015
1.672000	1.644970
1.672500	1.645926
1.673000	1.644970
1.673500	1.644015
1.674000	1.645926
1.674500	1.646563
1.675000	1.645289
1.675500	1.644652
1.676000	1.646245
1.676500	1.645926
1.677000	1.644652
1.677500	1.644652
1.678000	1.646245
1.678500	1.644970
1.679000	1.644333
1.679500	1.644970
1.680000	1.645289
1.680500	1.644652
1.681000	1.644333
1.681500	1.644970
1.682000	1.645926
1.682500	1.645289
1.683000	1.644333
1.683500	1.645289
1.684000	1.646245
1.684500	1.644970
1.685000	1.645289
1.685500	1.645289
1.686000	1.645926
1.686500	1.646245
1.687000	1.645926
1.687500	1.645608
1.688000	1.645289
1.688500	1.645289
1.689000	1.645289
1.689500	1.645608
1.690000	1.645926
1.690500	1.644970
1.691000	1.645608
1.691500	1.645608
1.692000	1.644970
1.692500	1.645926
1.693000	1.647200
1.693500	1.646563
1.694000	1.644652
1.694500	1.644970
1.695000	1.646245
1.695500	1.647200
1.696000	1.644333
1.696500	1.644970
1.697000	1.647200
1.697500	1.646882
1.698000	1.644333
1.698500	1.644970
1.699000	1.648156
1.699500	1.646245
1.700000	1.644015
1.700500	1.644652
1.701000	1.647837
1.701500	1.647200
1.702000	1.643696
1.702500	1.644652
1.703000	1.647837
1.703500	1.646563
1.704000	1.643059
1.704500	1.644652
1.705000	1.648793
1.705500	1.646563
1.706000	1.642741
1.706500	1.645289
1.707000	1.649111
1.707500	1.646563
1.708000	1.643378
1.708500	1.645289
1.709000	1.648793
1.709500	1.646245
1.710000	1.643059
1.710500	1.644015
1.711000	1.648793
1.711500	1.645926
1.712000	1.643059
1.712500	1.644333
1.713000	1.648474
1.713500	1.645926
1.714000	1.643059
1.714500	1.645608
1.715000	1.647200
1.715500	1.646563
1.716000	1.643378
1.716500	1.645289
1.717000	1.647200
1.717500	1.645608
1.718000	1.644333
1.718500	1.645289
1.719000	1.646563
1.719500	1.644015
1.720000	1.644015
1.720500	1.645289
1.721000	1.646563
1.721500	1.645608
1.722000	1.644015
1.722500	1.645926
1.723000	1.645926
1.723500	1.644970
1.724000	1.644652
1.724500	1.644970
1.725000	1.645926
1.725500	1.644333
1.726000	1.645289
1.726500	1.646245
1.727000	1.645608
1.727500	1.644333
1.728000	1.644970
1.728500	1.646245
1.729000	1.644970
1.729500	1.645289
1.730000	1.644970
1.730500	1.645289
1.731000	1.645289
1.731500	1.645289
1.732000	1.645289
1.732500	1.645289
1.733000	1.644333
1.733500	1.644970
1.734000	1.645289
1.734500	1.644652
1.735000	1.644015
1.735500	1.644970
1.736000	1.645289
1.736500	1.644652
1.737000	1.644333
1.737500	1.645289
1.738000	1.645926
1.738500	1.644015
1.739000	1.644970
1.739500	1.645608
1.740000	1.646245
1.740500	1.644652
1.741000	1.644333
1.741500	1.645926
1.742000	1.645926
1.742500	1.644333
1.743000	1.643378
1.743500	1.645926
1.744000	1.645926
1.744500	1.643378
1.745000	1.643059
1.745500	1.646563
1.746000	1.645926
1.746500	1.643059
1.747000	1.644333
1.747500	1.646882
1.748000	1.645926
1.748500	1.643696
1.749000	1.644652
1.749500	1.646882
1.750000	1.646245
1.750500	1.642741
1.751000	1.644652
1.751500	1.647837
1.752000	1.646245
1.752500	1.642741
1.753000	1.644015
1.753500	1.647519
1.754000	1.645608
1.754500	1.643059
1.755000	1.644015
1.755500	1.648156
1.756000	1.646563
1.756500	1.642741
1.757000	1.644333
1.757500	1.647519
1.758000	1.645289
1.758500	1.643059
1.759000	1.644970
1.759500	1.648156
1.760000	1.646245
1.760500	1.642741
1.761000	1.645289
1.761500	1.648156
1.762000	1.645926
1.762500	1.643378
1.763000	1.645289
1.763500	1.648474
1.764000	1.645608
1.764500	1.643378
1.765000	1.646245
1.765500	1.647519
1.766000	1.645608
1.766500	1.643696
1.767000	1.646563
1.767500	1.647200
1.768000	1.646563
1.768500	1.644333
1.769000	1.645926
1.769500	1.647519
1.770000	1.645608
1.770500	1.644652
1.771000	1.645608
1.771500	1.647519
1.772000	1.645289
1.772500	1.644970
1.773000	1.647200
1.773500	1.646563
1.774000	1.645289
1.774500	1.644970
1.775000	1.646563
1.775500	1.645608
1.776000	1.645608
1.776500	1.645608
1.777000	1.647200
1.777500	1.645926
1.778000	1.645608
1.778500	1.645608
1.779000	1.646245
1.779500	1.646245
1.780000	1.644652
1.780500	1.645926
1.781000	1.646245
1.781500	1.645926
1.782000	1.645289
1.782500	1.645289
1.783000	1.646245
1.783500	1.645608
1.784000	1.645289
1.784500	1.645608
1.785000	1.646245
1.785500	1.645289
1.786000	1.644652
1.786500	1.645289
1.787000	1.645608
1.787500	1.644970
1.788000	1.645926
1.788500	1.645926
1.789000	1.645289
1.789500	1.645289
1.790000	1.646563
1.790500	1.646563
1.791000	1.643696
1.791500	1.644333
1.792000	1.646882
1.792500	1.646245
1.793000	1.644333
1.793500	1.644333
1.794000	1.646882
1.794500	1.646882
1.795000	1.643059
1.795500	1.644652
1.796000	1.647519
1.796500	1.646245
1.797000	1.642104
1.797500	1.644652
1.798000	1.647519
1.798500	1.645926
1.799000	1.642104
1.799500	1.644333
1.800000	1.648156
1.800500	1.645289
1.801000	1.642104
1.801500	1.644970
1.802000	1.647519
1.802500	1.645289
1.803000	1.642422
1.803500	1.644970
1.804000	1.646882
1.804500	1.645926
1.805000	1.643059
1.805500	1.644015
1.806000	1.646882
1.806500	1.645289
1.807000	1.643378
1.807500	1.645926
1.808000	1.647200
1.808500	1.644970
1.809000	1.644015
1.809500	1.645608
1.810000	1.645289
1.810500	1.644652
1.811000	1.643696
1.811500	1.645289
1.812000	1.644652
1.812500	1.644652
1.813000	1.644015
1.813500	1.645608
1.814000	1.645608
1.814500	1.644970
1.815000	1.644652
1.815500	1.646245
1.816000	1.644970
1.816500	1.644652
1.817000	1.645926
1.817500	1.645608
1.818000	1.644333
1.818500	1.645289
1.819000	1.646245
1.819500	1.644652
1.820000	1.644970
1.820500	1.644652
1.821000	1.645289
1.821500	1.644333
1.822000	1.644015
1.822500	1.645608
1.823000	1.645289
1.823500	1.644333
1.824000	1.643696
1.824500	1.645608
1.825000	1.646245
1.825500	1.644970
1.826000	1.644015
1.826500	1.646245
1.827000	1.645289
1.827500	1.643696
1.828000	1.644015
1.828500	1.646245
1.829000	1.645926
1.829500	1.642741
1.830000	1.644652
1.830500	1.647200
1.831000	1.646882
1.831500	1.643378
1.832000	1.644652
1.832500	1.647837
1.833000	1.645289
1.833500	1.642422
1.834000	1.644015
1.834500	1.647519
1.835000	1.645926
1.835500	1.642422
1.836000	1.644652
1.836500	1.648156
1.837000	1.645608
1.837500	1.642422
1.838000	1.644015
1.838500	1.647519
1.839000	1.645608
1.839500	1.642741
1.840000	1.645608
1.840500	1.646882
1.841000	1.645608
1.841500	1.643378
1.842000	1.645926
1.842500	1.647200
1.843000	1.645608
1.843500	1.644015
1.844000	1.645608
1.844500	1.646245
1.845000	1.644652
1.845500	1.644652
1.846000	1.646882
1.846500	1.645926
1.847000	1.644970
1.847500	1.644652
1.848000	1.645926
1.848500	1.644970
1.849000	1.644333
1.849500	1.644970
1.850000	1.645289
1.850500	1.645926
1.851000	1.644015
1.851500	1.644970
1.852000	1.645608
1.852500	1.645289
1.853000	1.644970
1.853500	1.645608
1.854000	1.644970
1.854500	1.645289
1.855000	1.644652
1.855500	1.645289
1.856000	1.645608
1.856500	1.644333
1.857000	1.644333
1.857500	1.644652
1.858000	1.645608
1.858500	1.644652
1.859000	1.644970
1.859500	1.645289
1.860000	1.644970
1.860500	1.644333
1.861000	1.645289
1.861500	1.645926
1.862000	1.644333
1.862500	1.644652
1.863000	1.645608
1.863500	1.645608
1.864000	1.644333
1.864500	1.644652
1.865000	1.645608
1.865500	1.645608
1.866000	1.644015
1.866500	1.644015
1.867000	1.646882
1.867500	1.645608
1.868000	1.643059
1.868500	1.643059
1.869000	1.647519
1.869500	1.646245
1.870000	1.642741
1.870500	1.644652
1.871000	1.647519
1.871500	1.646563
1.872000	1.641785
1.872500	1.644015
1.873000	1.648156
1.873500	1.645289
1.874000	1.642741
1.874500	1.644333
1.875000	1.647200
1.875500	1.645289
1.876000	1.642104
1.876500	1.643059
1.877000	1.647837
1.877500	1.645926
1.878000	1.642422
1.878500	1.644015
1.879000	1.647519
1.879500	1.644970
1.880000	1.642741
1.880500	1.644333
1.881000	1.647200
1.881500	1.644333
1.882000	1.642104
1.882500	1.644652
1.883000	1.645926
1.883500	1.644970
1.884000	1.642422
1.884500	1.645289
1.885000	1.646882
1.885500	1.645289
1.886000	1.643696
1.886500	1.645926
1.887000	1.645289
1.887500	1.644652
1.888000	1.643696
1.888500	1.645608
1.889000	1.645926
1.889500	1.644333
1.890000	1.644015
1.890500	1.645608
1.891000	1.645608
1.891500	1.644015
1.892000	1.644015
1.892500	1.645289
1.893000	1.645289
1.893500	1.643696
1.894000	1.644333
1.894500	1.645608
1.895000	1.644652
1.895500	1.644333
1.896000	1.644015
1.896500	1.644015
1.897000	1.643696
1.897500	1.644015
1.898000	1.644652
1.898500	1.644652
1.899000	1.644652
1.899500	1.644015
1.900000	1.644015
1.900500	1.644970
1.901000	1.644015
1.901500	1.644015
1.902000	1.644970
1.902500	1.644652
1.903000	1.644015
1.903500	1.645289
1.904000	1.644333
1.904500	1.643696
1.905000	1.643378
1.905500	1.644652
1.906000	1.644970
1.906500	1.644015
1.907000	1.644333
1.907500	1.645289
1.908000	1.646245
1.908500	1.643378
1.909000	1.644652
1.909500	1.645608
1.910000	1.645608
1.910500	1.644015
1.911000	1.644333
1.911500	1.646563
1.912000	1.645289
1.912500	1.644333
1.913000	1.644970
1.913500	1.646882
1.914000	1.645289
1.914500	1.643059
1.915000	1.644333
1.915500	1.646882
1.916000	1.646563
1.916500	1.643059
1.917000	1.644970
1.917500	1.647519
1.918000	1.646245
1.918500	1.642741
1.919000	1.644333
1.919500	1.647200
1.920000	1.646245
1.920500	1.641785
1.921000	1.645289
1.921500	1.648156
1.922000	1.645608
1.922500	1.643378
1.923000	1.644970
1.923500	1.648156
1.924000	1.645608
1.924500	1.643059
1.925000	1.645608
1.925500	1.647519
1.926000	1.645608
1.926500	1.642741
1.927000	1.644970
1.927500	1.648474
1.928000	1.645926
1.928500	1.643378
1.929000	1.644970
1.929500	1.647519
1.930000	1.645289
1.930500	1.643696
1.931000	1.645289
1.931500	1.647837
1.932000	1.645926
1.932500	1.643696
1.933000	1.645289
1.933500	1.647519
1.934000	1.645608
1.934500	1.643378
1.935000	1.646245
1.935500	1.647519
1.936000	1.646245
1.936500	1.644015
1.937000	1.644652
1.937500	1.647200
1.938000	1.645926
1.938500	1.644015
1.939000	1.645608
1.939500	1.646882
1.940000	1.645289
1.940500	1.644652
1.941000	1.646563
1.941500	1.645926
1.942000	1.645608
1.942500	1.645608
1.943000	1.645926
1.943500	1.646245
1.944000	1.644970
1.944500	1.645608
1.945000	1.646563
1.945500	1.645608
1.946000	1.645289
1.946500	1.645608
1.947000	1.646245
1.947500	1.645926
1.948000	1.645608
1.948500	1.645608
1.949000	1.646563
1.949500	1.645289
1.950000	1.644970
1.950500	1.645289
1.951000	1.646245
1.951500	1.645926
1.952000	1.645926
1.952500	1.646245
1.953000	1.646882
1.953500	1.645926
1.954000	1.645289
1.954500	1.645926
1.955000	1.646563
1.955500	1.645926
1.956000	1.645289
1.956500	1.645926
1.957000	1.644970
1.957500	1.645608
1.958000	1.646245
1.958500	1.645926
1.959000	1.645289
1.959500	1.644652
1.960000	1.646245
1.960500	1.646245
1.961000	1.645289
1.961500	1.644970
1.962000	1.645926
1.962500	1.645926
1.963000	1.644333
1.963500	1.644333
1.964000	1.646563
1.964500	1.645926
1.965000	1.644015
1.965500	1.645289
1.966000	1.647837
1.966500	1.645926
1.967000	1.643378
1.967500	1.644970
1.968000	1.648474
1.968500	1.646882
1.969000	1.642741
1.969500	1.644652
1.970000	1.648793
1.970500	1.646882
1.971000	1.643378
1.971500	1.644333
1.972000	1.648793
1.972500	1.646882
1.973000	1.642741
1.973500	1.644333
1.974000	1.648793
1.974500	1.645926
1.975000	1.642104
1.975500	1.644970
1.976000	1.648474
1.976500	1.645608
1.977000	1.642104
1.977500	1.644970
1.978000	1.648156
1.978500	1.645926
1.979000	1.643378
1.979500	1.644970
1.980000	1.648156
1.980500	1.646245
1.981000	1.642741
1.981500	1.645608
1.982000	1.647200
1.982500	1.646563
1.983000	1.643378
1.983500	1.645926
1.984000	1.648156
1.984500	1.645289
1.985000	1.643059
1.985500	1.645289
1.986000	1.647519
1.986500	1.645608
1.987000	1.643696
1.987500	1.645608
1.988000	1.646563
1.988500	1.644652
1.989000	1.643696
1.989500	1.645926
1.990000	1.645289
1.990500	1.645289
1.991000	1.644015
1.991500	1.645289
1.992000	1.645289
1.992500	1.643696
1.993000	1.644970
1.993500	1.645608
1.994000	1.645289
1.994500	1.644970
1.995000	1.644333
1.995500	1.645289
1.996000	1.645289
1.996500	1.643696
1.997000	1.645289
1.997500	1.646245
1.998000	1.645926
1.998500	1.644652
1.999000	1.645289
1.999500	1.645608
2.000000	1.646245
2.000500	1.644970
2.001000	1.645608
2.001500	1.645608
2.002000	1.645289
2.002500	1.644970
2.003000	1.645289
2.003500	1.645926
2.004000	1.644333
2.004500	1.645289
2.005000	1.645926
2.005500	1.645608
2.006000	1.644333
2.006500	1.645289
2.007000	1.646245
2.007500	1.644015
2.008000	1.644333
2.008500	1.645926
2.009000	1.645608
2.009500	1.644015
2.010000	1.644652
2.010500	1.647200
2.011000	1.645926
2.011500	1.644015
2.012000	1.644333
2.012500	1.646563
2.013000	1.645926
2.013500	1.643378
2.014000	1.644333
2.014500	1.646563
2.015000	1.646245
2.015500	1.642422
2.016000	1.644333
2.016500	1.646563
2.017000	1.645608
2.017500	1.642741
2.018000	1.643696
2.018500	1.647837
2.019000	1.645926
2.019500	1.643059
2.020000	1.644652
2.020500	1.648156
2.021000	1.645926
2.021500	1.641785
2.022000	1.644652
2.022500	1.647837
2.023000	1.644970
2.023500	1.642422
2.024000	1.643696
2.024500	1.647837
2.025000	1.644970
2.025500	1.642104
2.026000	1.645608
2.026500	1.647519
2.027000	1.645289
2.027500	1.643059
2.028000	1.644652
2.028500	1.646882
2.029000	1.645608
2.029500	1.642741
2.030000	1.644333
2.030500	1.645926
2.031000	1.644652
2.031500	1.644015
2.032000	1.644333
2.032500	1.646245
2.033000	1.644652
2.033500	1.643378
2.034000	1.645289
2.034500	1.646245
2.035000	1.644333
2.035500	1.643696
2.036000	1.644970
2.036500	1.645289
2.037000	1.644652
2.037500	1.644015
2.038000	1.645289
2.038500	1.645608
2.039000	1.644333
2.039500	1.644652
2.040000	1.645289
2.040500	1.644015
2.041000	1.644652
2.041500	1.644970
2.042000	1.645289
2.042500	1.645289
2.043000	1.644015
2.043500	1.644970
2.044000	1.645608
2.044500	1.644015
2.045000	1.644333
2.045500	1.645289
2.046000	1.644970
2.046500	1.644333
2.047000	1.645289
2.047500	1.644970
2.048000	1.644015
2.048500	1.644652
2.049000	1.643696
2.049500	1.644652
2.050000	1.644015
2.050500	1.643696
2.051000	1.645926
2.051500	1.644970
2.052000	1.643378
2.052500	1.643378
2.053000	1.646563
2.053500	1.645608
2.054000	1.643696
2.054500	1.644015
2.055000	1.646245
2.055500	1.646245
2.056000	1.643059
2.056500	1.644015
2.057000	1.646882
2.057500	1.645926
2.058000	1.642422
2.058500	1.644015
2.059000	1.646882
2.059500	1.645608
2.060000	1.643059
2.060500	1.643378
2.061000	1.646563
2.061500	1.645926
2.062000	1.642422
2.062500	1.644015
2.063000	1.647519
2.063500	1.645289
2.064000	1.641785
2.064500	1.644333
2.065000	1.647519
2.065500	1.644652
2.066000	1.641785
2.066500	1.644333
2.067000	1.647519
2.067500	1.644652
2.068000	1.642422
2.068500	1.644970
2.069000	1.647519
2.069500	1.645926
2.070000	1.642104
2.070500	1.644652
2.071000	1.647200
2.071500	1.645289
2.072000	1.643696
2.072500	1.645289
2.073000	1.646563
2.073500	1.645289
2.074000	1.643378
2.074500	1.645926
2.075000	1.646882
2.075500	1.645608
2.076000	1.643696
2.076500	1.646245
2.077000	1.646563
2.077500	1.644970
2.078000	1.644333
2.078500	1.645926
2.079000	1.646563
2.079500	1.644333
2.080000	1.644970
2.080500	1.645608
2.081000	1.645608
2.081500	1.644652
2.082000	1.644333
2.082500	1.645608
2.083000	1.645608
2.083500	1.644333
2.084000	1.645289
2.084500	1.645926
2.085000	1.644970
2.085500	1.644652
2.086000	1.645608
2.086500	1.645289
2.087000	1.644970
2.087500	1.645289
2.088000	1.645608
2.088500	1.644652
2.089000	1.644970
2.089500	1.644652
2.090000	1.646245
2.090500	1.645289
2.091000	1.644333
2.091500	1.646245
2.092000	1.644970
2.092500	1.645289
2.093000	1.644970
2.093500	1.645608
2.094000	1.645608
2.094500	1.644015
2.095000	1.644333
2.095500	1.646563
2.096000	1.645926
2.096500	1.643378
2.097000	1.643378
2.097500	1.646882
2.098000	1.646563
2.098500	1.643696
2.099000	1.644333
2.099500	1.647837
2.100000	1.645608
2.100500	1.643059
2.101000	1.644652
2.101500	1.647519
2.102000	1.646245
2.102500	1.643378
2.103000	1.644333
2.103500	1.647519
2.104000	1.646563
2.104500	1.642422
2.105000	1.645289
2.105500	1.647519
2.106000	1.645926
2.106500	1.642422
2.107000	1.644970
2.107500	1.647519
2.108000	1.645289
2.108500	1.643059
2.109000	1.644015
2.109500	1.648474
2.110000	1.645608
2.110500	1.643696
2.111000	1.644970
2.111500	1.648474
2.112000	1.645289
2.112500	1.643059
2.113000	1.644652
2.113500	1.647837
2.114000	1.645608
2.114500	1.643059
2.115000	1.644970
2.115500	1.647200
2.116000	1.644970
2.116500	1.643378
2.117000	1.645608
2.117500	1.647200
2.118000	1.645608
2.118500	1.644333
2.119000	1.645289
2.119500	1.647200
2.120000	1.644970
2.120500	1.644970
2.121000	1.645926
2.121500	1.645608
2.122000	1.644652
2.122500	1.644652
2.123000	1.644970
2.123500	1.645608
2.124000	1.644970
2.124500	1.645926
2.125000	1.645926
2.125500	1.646563
2.126000	1.644333
2.126500	1.645926
2.127000	1.645608
2.127500	1.644970
2.128000	1.644652
2.128500	1.645289
2.129000	1.645289
2.129500	1.644970
2.130000	1.645289
2.130500	1.645608
2.131000	1.645289
2.131500	1.644652
2.132000	1.645289
2.132500	1.645926
2.133000	1.645289
2.133500	1.644333
2.134000	1.646563
2.134500	1.645926
2.135000	1.644333
2.135500	1.644015
2.136000	1.646245
2.136500	1.645608
2.137000	1.643696
2.137500	1.644015
2.138000	1.645608
2.138500	1.646245
2.139000	1.644015
2.139500	1.644333
2.140000	1.647200
2.140500	1.645926
2.141000	1.642741
2.141500	1.644015
2.142000	1.647200
2.142500	1.646882
2.143000	1.642741
2.143500	1.644015
2.144000	1.647519
2.144500	1.644970
2.145000	1.642104
2.145500	1.643696
2.146000	1.648156
2.146500	1.645608
2.147000	1.642422
2.147500	1.644652
2.148000	1.647519
2.148500	1.645926
2.149000	1.642104
2.149500	1.644333
2.150000	1.647519
2.150500	1.645289
2.151000	1.642422
2.151500	1.644015
2.152000	1.647519
2.152500	1.645289
2.153000	1.642422
2.153500	1.644970
2.154000	1.647837
2.154500	1.645926
2.155000	1.642422
2.155500	1.644652
2.156000	1.646882
2.156500	1.645289
2.157000	1.643378
2.157500	1.645608
2.158000	1.648156
2.158500	1.645289
2.159000	1.643696
2.159500	1.644652
2.160000	1.647200
2.160500	1.644015
2.161000	1.643378
2.161500	1.645608
2.162000	1.645608
2.162500	1.644652
2.163000	1.644015
2.163500	1.645608
2.164000	1.646563
2.164500	1.644333
2.165000	1.644015
2.165500	1.645608
2.166000	1.646245
2.166500	1.644652
2.167000	1.644333
2.167500	1.645926
2.168000	1.645608
2.168500	1.644652
2.169000	1.644652
2.169500	1.645289
2.170000	1.645289
2.170500	1.644015
2.171000	1.645289
2.171500	1.645608
2.172000	1.644970
2.172500	1.644015
2.173000	1.645608
2.173500	1.645608
2.174000	1.645608
2.174500	1.645289
2.175000	1.645926
2.175500	1.645289
2.176000	1.645289
2.176500	1.645289
2.177000	1.645289
2.177500	1.644333
2.178000	1.644652
2.178500	1.646245
2.179000	1.646245
2.179500	1.644652
2.180000	1.644333
2.180500	1.646882
2.181000	1.646563
2.181500	1.643378
2.182000	1.643696
2.182500	1.645926
2.183000	1.646245
2.183500	1.644015
2.184000	1.644333
2.184500	1.647519
2.185000	1.646245
2.185500	1.643059
2.186000	1.644015
2.186500	1.648793
2.187000	1.646563
2.187500	1.643059
2.188000	1.644652
2.188500	1.647519
2.189000	1.646563
2.189500	1.642741
2.190000	1.644652
2.190500	1.648474
2.191000	1.645926
2.191500	1.642741
2.192000	1.644652
2.192500	1.648156
2.193000	1.645608
2.193500	1.642741
2.194000	1.644652
2.194500	1.647837
2.195000	1.645608
2.195500	1.642741
2.196000	1.645289
2.196500	1.648156
2.197000	1.645608
2.197500	1.643059
2.198000	1.645608
2.198500	1.647519
2.199000	1.645289
2.199500	1.643059
2.200000	1.645289
2.200500	1.646882
2.201000	1.645289
2.201500	1.644333
2.202000	1.644970
2.202500	1.646563
2.203000	1.644970
2.203500	1.644015
2.204000	1.645926
2.204500	1.646245
2.205000	1.645289
2.205500	1.645289
2.206000	1.645926
2.206500	1.646563
2.207000	1.645289
2.207500	1.644333
2.208000	1.646245
2.208500	1.644970
2.209000	1.644333
2.209500	1.644652
2.210000	1.645926
2.210500	1.645289
2.211000	1.644652
2.211500	1.645289
2.212000	1.646245
2.212500	1.591775
2.213000	1.645289
2.213500	1.645289
2.214000	1.646563
2.214500	1.645608
2.215000	1.644970
2.215500	1.645926
2.216000	1.646245
2.216500	1.644970
2.217000	1.646245
2.217500	1.645608
2.218000	1.645289
2.218500	1.644652
2.219000	1.645926
2.219500	1.645926
2.220000	1.645926
2.220500	1.644970
2.221000	1.646882
2.221500	1.645608
2.222000	1.644333
2.222500	1.644333
2.223000	1.646882
2.223500	1.646882
2.224000	1.643696
2.224500	1.644015
2.225000	1.647519
2.225500	1.646563
2.226000	1.643378
2.226500	1.644015
2.227000	1.647837
2.227500	1.645926
2.228000	1.643059
2.228500	1.644970
2.229000	1.647837
2.229500	1.646882
2.230000	1.643378
2.230500	1.644015
2.231000	1.647519
2.231500	1.646563
2.232000	1.642741
2.232500	1.644015
2.233000	1.647519
2.233500	1.646882
2.234000	1.642104
2.234500	1.644970
2.235000	1.647837
2.235500	1.646563
2.236000	1.643059
2.236500	1.645289
2.237000	1.647837
2.237500	1.645289
2.238000	1.642741
2.238500	1.644970
2.239000	1.647519
2.239500	1.645926
2.240000	1.642741
2.240500	1.645289
2.241000	1.647837
2.241500	1.646245
2.242000	1.642741
2.242500	1.645608
2.243000	1.647837
2.243500	1.645608
2.244000	1.642741
2.244500	1.645289
2.245000	1.646563
2.245500	1.644970
2.246000	1.643378
2.246500	1.645926
2.247000	1.646882
2.247500	1.644970
2.248000	1.644015
2.248500	1.645608
2.249000	1.645608
2.249500	1.645289
2.250000	1.644652
2.250500	1.645289
2.251000	1.645926
2.251500	1.644970
2.252000	1.644970
2.252500	1.650386
2.253000	1.646563
2.253500	1.644652
2.254000	1.645608
2.254500	1.646563
2.255000	1.645926
2.255500	1.644652
2.256000	1.645289
2.256500	1.645608
2.257000	1.644333
2.257500	1.644333
2.258000	1.645608
2.258500	1.644970
2.259000	1.644015
2.259500	1.645608
2.260000	1.645926
2.260500	1.646245
2.261000	1.644333
2.261500	1.646563
2.262000	1.645926
2.262500	1.644652
2.263000	1.644970
2.263500	1.647200
2.264000	1.646882
2.264500	1.644015
2.265000	1.644652
2.265500	1.646882
2.266000	1.645926
2.266500	1.643696
2.267000	1.645289
2.267500	1.646882
2.268000	1.645926
2.268500	1.643696
2.269000	1.644333
2.269500	1.647200
2.270000	1.646245
2.270500	1.643378
2.271000	1.645926
2.271500	1.647837
2.272000	1.645926
2.272500	1.642104
2.273000	1.644652
2.273500	1.647519
2.274000	1.646245
2.274500	1.642741
2.275000	1.644015
2.275500	1.648474
2.276000	1.646245
2.276500	1.642422
2.277000	1.645289
2.277500	1.647837
2.278000	1.645926
2.278500	1.642741
2.279000	1.644652
2.279500	1.647519
2.280000	1.645608
2.280500	1.642422
2.281000	1.644652
2.281500	1.647837
2.282000	1.645289
2.282500	1.643378
2.283000	1.644970
2.283500	1.648156
2.284000	1.644970
2.284500	1.642741
2.285000	1.645608
2.285500	1.645926
2.286000	1.644652
2.286500	1.644333
2.287000	1.645608
2.287500	1.646245
2.288000	1.644652
2.288500	1.644652
2.289000	1.645608
2.289500	1.645289
2.290000	1.644652
2.290500	1.644970
2.291000	1.646563
2.291500	1.644652
2.292000	1.644652
2.292500	1.644333
2.293000	1.645289
2.293500	1.644970
2.294000	1.644015
2.294500	1.645289
2.295000	1.645926
2.295500	1.644333
2.296000	1.644970
2.296500	1.644970
2.297000	1.646245
2.297500	1.644333
2.298000	1.645289
2.298500	1.645608
2.299000	1.644970
2.299500	1.644652
2.300000	1.645608
2.300500	1.645926
2.301000	1.644333
2.301500	1.643696
2.302000	1.645926
2.302500	1.646245
2.303000	1.644015
2.303500	1.644333
2.304000	1.646245
2.304500	1.645926
2.305000	1.643696
2.305500	1.644015
2.306000	1.648156
2.306500	1.645608
2.307000	1.642741
2.307500	1.643059
2.308000	1.647200
2.308500	1.644970
2.309000	1.642422
2.309500	1.644333
2.310000	1.647200
2.310500	1.645289
2.311000	1.643059
2.311500	1.644333
2.312000	1.647200
2.312500	1.644333
2.313000	1.641467
2.313500	1.644015
2.314000	1.647519
2.314500	1.644970
2.315000	1.641785
2.315500	1.643378
2.316000	1.648474
2.316500	1.645608
2.317000	1.641467
2.317500	1.644333
2.318000	1.647837
2.318500	1.645608
2.319000	1.641785
2.319500	1.644015
2.320000	1.648474
2.320500	1.645289
2.321000	1.641467
2.321500	1.644652
2.322000	1.648474
2.322500	1.645608
2.323000	1.641785
2.323500	1.644333
2.324000	1.647519
2.324500	1.645289
2.325000	1.642422
2.325500	1.645608
2.326000	1.647519
2.326500	1.645608
2.327000	1.643378
2.327500	1.645289
2.328000	1.647519
2.328500	1.645289
2.329000	1.643378
2.329500	1.645608
2.330000	1.646882
2.330500	1.645289
2.331000	1.644333
2.331500	1.645926
2.332000	1.647200
2.332500	1.645608
2.333000	1.644970
2.333500	1.646563
2.334000	1.646563
2.334500	1.645608
2.335000	1.644652
2.335500	1.646245
2.336000	1.647519
2.336500	1.645289
2.337000	1.644970
2.337500	1.646245
2.338000	1.646882
2.338500	1.645608
2.339000	1.644970
2.339500	1.646882
2.340000	1.645926
2.340500	1.645289
2.341000	1.645289
2.341500	1.646563
2.342000	1.646245
2.342500	1.644970
2.343000	1.646563
2.343500	1.646563
2.344000	1.645926
2.344500	1.645608
2.345000	1.646245
2.345500	1.646563
2.346000	1.646245
2.346500	1.645926
2.347000	1.645289
2.347500	1.645926
2.348000	1.645926
2.348500	1.645289
2.349000	1.645608
2.349500	1.645926
2.350000	1.644970
2.350500	1.644970
2.351000	1.645926
2.351500	1.645608
2.352000	1.644652
2.352500	1.646563
2.353000	1.645608
2.353500	1.645289
2.354000	1.644970
2.354500	1.645289
2.355000	1.645289
2.355500	1.644652
2.356000	1.645289
2.356500	1.646563
2.357000	1.646563
2.357500	1.644015
2.358000	1.644970
2.358500	1.646882
2.359000	1.646245
2.359500	1.643059
2.360000	1.643696
2.360500	1.647837
2.361000	1.646245
2.361500	1.644015
2.362000	1.645289
2.362500	1.647837
2.363000	1.645926
2.363500	1.643059
2.364000	1.644652
2.364500	1.648156
2.365000	1.646882
2.365500	1.642104
2.366000	1.644015
2.366500	1.648474
2.367000	1.645926
2.367500	1.642741
2.368000	1.645289
2.368500	1.648156
2.369000	1.645608
2.369500	1.641785
2.370000	1.644333
2.370500	1.647837
2.371000	1.646245
2.371500	1.643059
2.372000	1.644970
2.372500	1.647519
2.373000	1.644970
2.373500	1.643696
2.374000	1.645289
2.374500	1.647519
2.375000	1.645289
2.375500	1.642741
2.376000	1.644652
2.376500	1.647200
2.377000	1.644970
2.377500	1.643059
2.378000	1.645926
2.378500	1.648156
2.379000	1.645608
2.379500	1.644970
2.380000	1.645926
2.380500	1.646563
2.381000	1.644652
2.381500	1.645289
2.382000	1.645608
2.382500	1.646882
2.383000	1.645926
2.383500	1.645608
2.384000	1.645608
2.384500	1.646245
2.385000	1.644652
2.385500	1.644652
2.386000	1.646563
2.386500	1.645926
2.387000	1.644970
2.387500	1.645289
2.388000	1.646563
2.388500	1.646563
2.389000	1.644970
2.389500	1.645608
2.390000	1.646882
2.390500	1.645608
2.391000	1.644970
2.391500	1.645289
2.392000	1.646245
2.392500	1.645289
2.393000	1.645289
2.393500	1.646245
2.394000	1.646245
2.394500	1.645289
2.395000	1.645289
2.395500	1.644970
2.396000	1.645926
2.396500	1.645608
2.397000	1.644970
2.397500	1.646882
2.398000	1.645289
2.398500	1.645608
2.399000	1.645608
2.399500	1.646563
2.400000	1.645608
2.400500	1.645926
2.401000	1.645926
2.401500	1.646245
2.402000	1.645289
2.402500	1.645289
2.403000	1.646882
2.403500	1.646563
2.404000	1.644652
2.404500	1.645289
2.405000	1.647200
2.405500	1.646882
2.406000	1.644652
2.406500	1.643696
2.407000	1.647200
2.407500	1.647519
2.408000	1.644652
2.408500	1.644652
2.409000	1.647837
2.409500	1.647200
2.410000	1.643696
2.410500	1.645608
2.411000	1.647837
2.411500	1.647837
2.412000	1.644015
2.412500	1.644970
2.413000	1.648793
2.413500	1.646882
2.414000	1.643696
2.414500	1.644652
2.415000	1.647837
2.415500	1.646245
2.416000	1.642741
2.416500	1.645289
2.417000	1.650067
2.417500	1.646882
2.418000	1.642741
2.418500	1.644652
2.419000	1.649111
2.419500	1.646563
2.420000	1.642422
2.420500	1.645608
2.421000	1.648474
2.421500	1.647200
2.422000	1.643378
2.422500	1.645289
2.423000	1.648156
2.423500	1.646882
2.424000	1.644015
2.424500	1.645289
2.425000	1.648474
2.425500	1.646245
2.426000	1.644333
2.426500	1.646245
2.427000	1.647837
2.427500	1.645608
2.428000	1.644333
2.428500	1.646563
2.429000	1.647200
2.429500	1.645289
2.430000	1.644652
2.430500	1.646245
2.431000	1.646882
2.431500	1.644970
2.432000	1.645289
2.432500	1.646882
2.433000	1.646882
2.433500	1.645289
2.434000	1.645926
2.434500	1.646563
2.435000	1.645926
2.435500	1.645926
2.436000	1.645289
2.436500	1.646882
2.437000	1.645926
2.437500	1.645926
2.438000	1.646245
2.438500	1.646563
2.439000	1.645289
2.439500	1.645289
2.440000	1.645608
2.440500	1.645926
2.441000	1.645926
2.441500	1.646245
2.442000	1.645608
2.442500	1.645926
2.443000	1.645608
2.443500	1.645926
2.444000	1.646563
2.444500	1.644970
2.445000	1.645289
2.445500	1.646563
2.446000	1.646882
2.446500	1.644652
2.447000	1.644970
2.447500	1.646882
2.448000	1.646563
2.448500	1.644333
2.449000	1.644333
2.449500	1.647200
2.450000	1.646563
2.450500	1.644333
2.451000	1.644333
2.451500	1.647837
2.452000	1.646882
2.452500	1.644333
2.453000	1.644970
2.453500	1.648156
2.454000	1.647200
2.454500	1.643378
2.455000	1.645926
2.455500	1.648156
2.456000	1.646563
2.456500	1.643059
2.457000	1.645926
2.457500	1.649111
2.458000	1.646563
2.458500	1.643378
2.459000	1.622991
2.459500	1.648793
2.460000	1.646245
2.460500	1.643378
2.461000	1.645608
2.461500	1.648474
2.462000	1.646245
2.462500	1.643378
2.463000	1.645608
2.463500	1.648474
2.464000	1.647200
2.464500	1.644015
2.465000	1.646245
2.465500	1.648156
2.466000	1.647200
2.466500	1.644333
2.467000	1.645926
2.467500	1.647837
2.468000	1.645926
2.468500	1.643378
2.469000	1.645608
2.469500	1.647519
2.470000	1.645926
2.470500	1.644652
2.471000	1.645926
2.471500	1.646563
2.472000	1.646245
2.472500	1.645608
2.473000	1.646882
2.473500	1.646245
2.474000	1.646245
2.474500	1.645608
2.475000	1.646563
2.475500	1.646882
2.476000	1.645926
2.476500	1.645926
2.477000	1.646563
2.477500	1.646563
2.478000	1.645608
2.478500	1.646882
2.479000	1.646882
2.479500	1.646563
2.480000	1.645608
2.480500	1.646245
2.481000	1.646882
2.481500	1.646882
2.482000	1.646563
2.482500	1.646245
2.483000	1.646882
2.483500	1.645608
2.484000	1.646563
2.484500	1.646882
2.485000	1.646882
2.485500	1.645608
2.486000	1.647200
2.486500	1.647200
2.487000	1.645926
2.487500	1.646245
2.488000	1.647837
2.488500	1.647837
2.489000	1.645608
2.489500	1.645608
2.490000	1.648474
2.490500	1.648474
2.491000	1.645926
2.491500	1.645608
2.492000	1.648474
2.492500	1.647837
2.493000	1.645926
2.493500	1.645926
2.494000	1.649430
2.494500	1.648474
2.495000	1.644333
2.495500	1.646563
2.496000	1.650067
2.496500	1.647837
2.497000	1.644652
2.497500	1.645926
2.498000	1.649430
2.498500	1.648156
2.499000	1.644652
2.499500	1.646563
2.500000	1.650386
2.500500	1.647837
2.501000	1.644333
2.501500	1.645608
2.502000	1.649749
2.502500	1.647519
2.503000	1.643696
2.503500	1.646245
2.504000	1.649749
2.504500	1.647519
2.505000	1.644652
2.505500	1.646882
2.506000	1.650067
2.506500	1.647519
2.507000	1.644970
2.507500	1.646563
2.508000	1.649111
2.508500	1.646882
2.509000	1.644333
2.509500	1.646882
2.510000	1.648793
2.510500	1.646882
2.511000	1.644333
2.511500	1.646245
2.512000	1.647837
2.512500	1.646563
2.513000	1.644015
2.513500	1.646245
2.514000	1.647200
2.514500	1.645926
2.515000	1.645289
2.515500	1.647200
2.516000	1.647200
2.516500	1.646563
2.517000	1.644970
2.517500	1.645926
2.518000	1.647519
2.518500	1.645926
2.519000	1.643696
2.519500	1.647519
2.520000	1.647200
2.520500	1.645608
2.521000	1.645289
2.521500	1.646563
2.522000	1.647200
2.522500	1.644970
2.523000	1.646245
2.523500	1.647200
2.524000	1.645926
2.524500	1.644970
2.525000	1.644970
2.525500	1.646882
2.526000	1.645608
2.526500	1.645926
2.527000	1.645608
2.527500	1.646245
2.528000	1.645289
2.528500	1.644652
2.529000	1.645289
2.529500	1.645608
2.530000	1.645289
2.530500	1.645289
2.531000	1.645926
2.531500	1.645608
2.532000	1.644970
2.532500	1.645926
2.533000	1.645608
2.533500	1.645608
2.534000	1.644333
2.534500	1.646245
2.535000	1.646245
2.535500	1.644970
2.536000	1.644970
2.536500	1.645289
2.537000	1.645289
2.537500	1.644652
2.538000	1.644970
2.538500	1.646245
2.539000	1.647837
2.539500	1.644015
2.540000	1.645608
2.540500	1.646245
2.541000	1.645608
2.541500	1.644015
2.542000	1.643696
2.542500	1.647519
2.543000	1.646882
2.543500	1.644333
2.544000	1.644652
2.544500	1.648156
2.545000	1.646563
2.545500	1.643378
2.546000	1.644970
2.546500	1.648474
2.547000	1.646882
2.547500	1.643059
2.548000	1.645289
2.548500	1.648474
2.549000	1.646882
2.549500	1.642422
2.550000	1.644970
2.550500	1.648156
2.551000	1.646563
2.551500	1.642422
2.552000	1.645289
2.552500	1.648156
2.553000	1.646563
2.553500	1.643378
2.554000	1.645289
2.554500	1.648156
2.555000	1.646563
2.555500	1.644015
2.556000	1.646245
2.556500	1.648156
2.557000	1.646563
2.557500	1.644015
2.558000	1.645608
2.558500	1.647519
2.559000	1.645926
2.559500	1.644333
2.560000	1.646563
2.560500	1.647200
2.561000	1.645608
2.561500	1.644970
2.562000	1.645926
2.562500	1.647519
2.563000	1.644652
2.563500	1.644652
2.564000	1.646245
2.564500	1.645926
2.565000	1.644970
2.565500	1.645289
2.566000	1.646882
2.566500	1.646563
2.567000	1.646245
2.567500	1.646563
2.568000	1.647837
2.568500	1.645926
2.569000	1.645608
2.569500	1.645926
2.570000	1.646563
2.570500	1.645926
2.571000	1.644970
2.571500	1.646245
2.572000	1.646563
2.572500	1.645289
2.573000	1.645926
2.573500	1.646245
2.574000	1.646563
2.574500	1.645926
2.575000	1.646563
2.575500	1.647200
2.576000	1.646245
2.576500	1.645926
2.577000	1.645926
2.577500	1.646563
2.578000	1.645289
2.578500	1.645608
2.579000	1.647200
2.579500	1.646563
2.580000	1.645608
2.580500	1.645608
2.581000	1.647200
2.581500	1.645926
2.582000	1.644333
2.582500	1.645289
2.583000	1.647519
2.583500	1.646563
2.584000	1.643696
2.584500	1.645289
2.585000	1.647200
2.585500	1.647200
2.586000	1.644015
2.586500	1.644970
2.587000	1.648156
2.587500	1.646563
2.588000	1.643378
2.588500	1.644652
2.589000	1.648793
2.589500	1.646563
2.590000	1.642741
2.590500	1.644652
2.591000	1.648474
2.591500	1.646563
2.592000	1.642741
2.592500	1.644970
2.593000	1.648793
2.593500	1.646245
2.594000	1.642104
2.594500	1.644652
2.595000	1.648474
2.595500	1.646245
2.596000	1.643378
2.596500	1.645289
2.597000	1.647837
2.597500	1.645608
2.598000	1.642741
2.598500	1.645289
2.599000	1.647200
2.599500	1.645608
2.600000	1.643696
2.600500	1.645289
2.601000	1.646563
2.601500	1.645926
2.602000	1.643696
2.602500	1.644970
2.603000	1.646245
2.603500	1.644652
2.604000	1.643696
2.604500	1.646245
2.605000	1.646245
2.605500	1.645289
2.606000	1.644015
2.606500	1.645926
2.607000	1.646245
2.607500	1.645289
2.608000	1.644333
2.608500	1.645926
2.609000	1.645289
2.609500	1.644333
2.610000	1.644652
2.610500	1.645926
2.611000	1.645926
2.611500	1.644015
2.612000	1.644970
2.612500	1.645608
2.613000	1.644970
2.613500	1.645289
2.614000	1.645289
2.614500	1.645289
2.615000	1.645289
2.615500	1.644333
2.616000	1.645289
2.616500	1.645608
2.617000	1.645608
2.617500	1.644333
2.618000	1.645289
2.618500	1.645289
2.619000	1.645289
2.619500	1.644970
2.620000	1.645608
2.620500	1.644970
2.621000	1.644333
2.621500	1.646245
2.622000	1.645608
2.622500	1.644333
2.623000	1.644333
2.623500	1.646563
2.624000	1.646245
2.624500	1.643696
2.625000	1.644652
2.625500	1.647200
2.626000	1.645289
2.626500	1.643378
2.627000	1.643378
2.627500	1.647200
2.628000	1.646245
2.628500	1.643378
2.629000	1.644333
2.629500	1.646882
2.630000	1.646563
2.630500	1.642741
2.631000	1.644015
2.631500	1.648474
2.632000	1.646245
2.632500	1.643059
2.633000	1.645608
2.633500	1.647837
2.634000	1.645926
2.634500	1.642422
2.635000	1.644652
2.635500	1.648474
2.636000	1.645608
2.636500	1.643059
2.637000	1.645289
2.637500	1.647837
2.638000	1.646882
2.638500	1.642104
2.639000	1.645608
2.639500	1.648156
2.640000	1.645289
2.640500	1.643059
2.641000	1.644652
2.641500	1.646882
2.642000	1.645289
2.642500	1.643059
2.643000	1.645289
2.643500	1.646563
2.644000	1.644970
2.644500	1.643696
2.645000	1.645289
2.645500	1.647837
2.646000	1.644652
2.646500	1.643378
2.647000	1.645926
2.647500	1.647200
2.648000	1.645289
2.648500	1.644015
2.649000	1.645926
2.649500	1.646563
2.650000	1.644970
2.650500	1.645608
2.651000	1.645926
2.651500	1.644970
2.652000	1.644652
2.652500	1.645608
2.653000	1.645608
2.653500	1.645289
2.654000	1.645289
2.654500	1.644652
2.655000	1.645289
2.655500	1.645289
2.656000	1.644333
2.656500	1.645608
2.657000	1.645608
2.657500	1.644333
2.658000	1.644970
2.658500	1.645608
2.659000	1.644970
2.659500	1.644333
2.660000	1.644970
2.660500	1.645608
2.661000	1.644652
2.661500	1.644333
2.662000	1.644970
2.662500	1.646245
2.663000	1.644015
2.663500	1.644015
2.664000	1.646563
2.664500	1.645608
2.665000	1.643059
2.665500	1.644333
2.666000	1.646563
2.666500	1.645926
2.667000	1.643696
2.667500	1.643696
2.668000	1.645608
2.668500	1.645289
2.669000	1.642422
2.669500	1.643696
2.670000	1.646882
2.670500	1.644652
2.671000	1.642741
2.671500	1.643696
2.672000	1.646882
2.672500	1.644970
2.673000	1.642104
2.673500	1.644015
2.674000	1.646882
2.674500	1.645289
2.675000	1.641467
2.675500	1.643696
2.676000	1.648474
2.676500	1.645289
2.677000	1.641785
2.677500	1.643696
2.678000	1.647200
2.678500	1.644970
2.679000	1.640829
2.679500	1.643059
2.680000	1.646563
2.680500	1.645289
2.681000	1.642422
2.681500	1.643059
2.682000	1.645926
2.682500	1.644015
2.683000	1.641467
2.683500	1.644015
2.684000	1.645926
2.684500	1.644652
2.685000	1.641467
2.685500	1.644333
2.686000	1.647200
2.686500	1.644015
2.687000	1.642422
2.687500	1.644652
2.688000	1.646882
2.688500	1.643696
2.689000	1.642422
2.689500	1.644015
2.690000	1.645926
2.690500	1.643378
2.691000	1.642104
2.691500	1.644015
2.692000	1.645289
2.692500	1.644333
2.693000	1.643378
2.693500	1.644652
2.694000	1.645289
2.694500	1.643696
2.695000	1.643696
2.695500	1.644015
2.696000	1.644970
2.696500	1.644015
2.697000	1.643378
2.697500	1.645289
2.698000	1.644652
2.698500	1.643059
2.699000	1.644015
2.699500	1.644015
2.700000	1.644015
2.700500	1.642741
2.701000	1.643378
2.701500	1.644652
2.702000	1.644652
2.702500	1.643696
2.703000	1.644652
2.703500	1.644333
2.704000	1.644333
2.704500	1.643378
2.705000	1.644015
2.705500	1.643696
2.706000	1.644333
2.706500	1.643378
2.707000	1.643696
2.707500	1.645289
2.708000	1.643378
2.708500	1.643378
2.709000	1.644333
2.709500	1.644652
2.710000	1.643059
2.710500	1.644015
2.711000	1.644333
2.711500	1.642741
2.712000	1.643696
2.712500	1.644970
2.713000	1.644970
2.713500	1.643378
2.714000	1.643059
2.714500	1.645289
2.715000	1.644652
2.715500	1.643059
2.716000	1.643696
2.716500	1.645289
2.717000	1.644970
2.717500	1.643059
2.718000	1.642741
2.718500	1.644970
2.719000	1.645289
2.719500	1.643059
2.720000	1.643059
2.720500	1.645608
2.721000	1.644970
2.721500	1.641467
2.722000	1.643696
2.722500	1.646563
2.723000	1.644652
2.723500	1.642104
2.724000	1.643378
2.724500	1.647519
2.725000	1.644970
2.725500	1.641785
2.726000	1.643378
2.726500	1.646882
2.727000	1.644970
2.727500	1.642422
2.728000	1.642422
2.728500	1.646245
2.729000	1.645608
2.729500	1.641467
2.730000	1.643696
2.730500	1.647200
2.731000	1.645608
2.731500	1.641467
2.732000	1.644015
2.732500	1.646882
2.733000	1.644970
2.733500	1.642104
2.734000	1.643378
2.734500	1.646245
2.735000	1.645289
2.735500	1.641467
2.736000	1.644015
2.736500	1.647200
2.737000	1.644652
2.737500	1.641467
2.738000	1.644015
2.738500	1.646245
2.739000	1.644333
2.739500	1.642741
2.740000	1.644970
2.740500	1.647200
2.741000	1.643378
2.741500	1.642741
2.742000	1.644015
2.742500	1.645289
2.743000	1.644333
2.743500	1.642422
2.744000	1.644333
2.744500	1.645289
2.745000	1.644015
2.745500	1.643696
2.746000	1.645608
2.746500	1.644970
2.747000	1.643378
2.747500	1.643059
2.748000	1.644333
2.748500	1.644015
2.749000	1.642741
2.749500	1.644015
2.750000	1.644333
2.750500	1.644015
2.751000	1.643696
2.751500	1.644015
2.752000	1.644015
2.752500	1.644333
2.753000	1.643378
2.753500	1.644333
2.754000	1.644015
2.754500	1.643696
2.755000	1.644015
2.755500	1.644015
2.756000	1.643696
2.756500	1.643378
2.757000	1.644015
2.757500	1.644970
2.758000	1.644333
2.758500	1.644015
2.759000	1.643059
2.759500	1.644970
2.760000	1.643378
2.760500	1.642741
2.761000	1.644652
2.761500	1.644652
2.762000	1.643696
2.762500	1.642741
2.763000	1.644015
2.763500	1.644015
2.764000	1.643059
2.764500	1.642422
2.765000	1.644970
2.765500	1.645608
2.766000	1.642741
2.766500	1.642422
2.767000	1.644970
2.767500	1.644015
2.768000	1.642422
2.768500	1.642422
2.769000	1.645608
2.769500	1.644652
2.770000	1.641785
2.770500	1.642422
2.771000	1.645926
2.771500	1.644652
2.772000	1.641785
2.772500	1.643378
2.773000	1.646245
2.773500	1.645289
2.774000	1.641148
2.774500	1.642741
2.775000	1.646245
2.775500	1.644652
2.776000	1.641467
2.776500	1.642741
2.777000	1.646563
2.777500	1.645608
2.778000	1.641467
2.778500	1.642104
2.779000	1.646245
2.779500	1.644333
2.780000	1.640829
2.780500	1.642741
2.781000	1.646563
2.781500	1.644333
2.782000	1.641785
2.782500	1.643378
2.783000	1.645926
2.783500	1.644333
2.784000	1.641467
2.784500	1.642422
2.785000	1.646245
2.785500	1.644652
2.786000	1.641467
2.786500	1.644333
2.787000	1.646245
2.787500	1.644970
2.788000	1.641785
2.788500	1.643696
2.789000	1.645926
2.789500	1.644333
2.790000	1.642104
2.790500	1.643696
2.791000	1.645289
2.791500	1.643696
2.792000	1.641785
2.792500	1.644015
2.793000	1.645926
2.793500	1.643696
2.794000	1.643059
2.794500	1.644015
2.795000	1.645608
2.795500	1.644333
2.796000	1.642741
2.796500	1.644333
2.797000	1.644333
2.797500	1.643378
2.798000	1.643696
2.798500	1.644333
2.799000	1.644970
2.799500	1.643696
2.800000	1.642741
2.800500	1.644970
2.801000	1.644333
2.801500	1.643696
2.802000	1.643378
2.802500	1.644970
2.803000	1.643696
2.803500	1.643696
2.804000	1.644652
2.804500	1.644652
2.805000	1.645289
2.805500	1.643059
2.806000	1.643378
2.806500	1.644333
2.807000	1.644970
2.807500	1.643696
2.808000	1.644652
2.808500	1.645289
2.809000	1.644015
2.809500	1.644015
2.810000	1.644333
2.810500	1.644333
2.811000	1.643378
2.811500	1.643378
2.812000	1.644333
2.812500	1.644015
2.813000	1.644015
2.813500	1.643696
2.814000	1.644333
2.814500	1.644015
2.815000	1.644015
2.815500	1.645289
2.816000	1.643378
2.816500	1.644333
2.817000	1.643378
2.817500	1.644015
2.818000	1.643696
2.818500	1.643059
2.819000	1.643696
2.819500	1.644970
2.820000	1.644333
2.820500	1.643696
2.821000	1.643059
2.821500	1.644970
2.822000	1.644970
2.822500	1.642104
2.823000	1.642741
2.823500	1.645289
2.824000	1.644652
2.824500	1.642104
2.825000	1.642422
2.825500	1.645608
2.826000	1.644015
2.826500	1.642104
2.827000	1.642741
2.827500	1.645926
2.828000	1.644970
2.828500	1.641467
2.829000	1.643059
2.829500	1.646245
2.830000	1.644970
2.830500	1.640192
2.831000	1.641785
2.831500	1.645926
2.832000	1.644333
2.832500	1.640829
2.833000	1.641785
2.833500	1.646882
2.834000	1.644652
2.834500	1.640829
2.835000	1.642104
2.835500	1.646882
2.836000	1.644333
2.836500	1.641467
2.837000	1.643059
2.837500	1.646563
2.838000	1.644652
2.838500	1.641148
2.839000	1.643059
2.839500	1.645926
2.840000	1.643696
2.840500	1.640829
2.841000	1.643059
2.841500	1.645926
2.842000	1.643378
2.842500	1.641467
2.843000	1.643378
2.843500	1.645608
2.844000	1.643378
2.844500	1.641467
2.845000	1.643378
2.845500	1.643696
2.846000	1.642741
2.846500	1.641785
2.847000	1.643378
2.847500	1.644015
2.848000	1.643059
2.848500	1.642741
2.849000	1.644970
2.849500	1.644015
2.850000	1.642422
2.850500	1.643696
2.851000	1.643696
2.851500	1.644333
2.852000	1.643059
2.852500	1.643378
2.853000	1.644333
2.853500	1.644015
2.854000	1.643059
2.854500	1.644015
2.855000	1.644970
2.855500	1.643059
2.856000	1.643696
2.856500	1.643059
2.857000	1.644015
2.857500	1.643696
2.858000	1.643059
2.858500	1.643059
2.859000	1.644333
2.859500	1.643059
2.860000	1.644333
2.860500	1.643696
2.861000	1.643696
2.861500	1.644015
2.862000	1.644333
2.862500	1.644333
2.863000	1.643696
2.863500	1.642741
2.864000	1.644015
2.864500	1.644333
2.865000	1.643696
2.865500	1.642104
2.866000	1.645289
2.866500	1.644333
2.867000	1.642741
2.867500	1.643059
2.868000	1.644970
2.868500	1.644970
2.869000	1.642104
2.869500	1.643059
2.870000	1.645289
2.870500	1.644970
2.871000	1.642422
2.871500	1.642104
2.872000	1.645926
2.872500	1.644652
2.873000	1.641148
2.873500	1.642741
2.874000	1.646882
2.874500	1.645289
2.875000	1.641785
2.875500	1.642741
2.876000	1.646882
2.876500	1.645289
2.877000	1.641467
2.877500	1.643378
2.878000	1.645926
2.878500	1.644970
2.879000	1.640829
2.879500	1.642422
2.880000	1.646563
2.880500	1.644652
2.881000	1.641785
2.881500	1.642741
2.882000	1.647200
2.882500	1.644015
2.883000	1.641148
2.883500	1.642741
2.884000	1.646882
2.884500	1.644333
2.885000	1.641148
2.885500	1.643696
2.886000	1.646245
2.886500	1.644970
2.887000	1.641785
2.887500	1.643696
2.888000	1.646563
2.888500	1.644015
2.889000	1.642741
2.889500	1.644015
2.890000	1.645926
2.890500	1.644652
2.891000	1.642741
2.891500	1.644333
2.892000	1.646245
2.892500	1.644333
2.893000	1.642741
2.893500	1.644015
2.894000	1.644652
2.894500	1.643696
2.895000	1.644015
2.895500	1.644652
2.896000	1.644970
2.896500	1.643696
2.897000	1.643696
2.897500	1.645608
2.898000	1.644970
2.898500	1.643696
2.899000	1.644652
2.899500	1.645289
2.900000	1.644970
2.900500	1.643696
2.901000	1.643696
2.901500	1.645289
2.902000	1.643696
2.902500	1.644333
2.903000	1.644652
2.903500	1.644333
2.904000	1.643378
2.904500	1.644015
2.905000	1.644652
2.905500	1.644015
2.906000	1.642422
2.906500	1.643696
2.907000	1.644015
2.907500	1.644015
2.908000	1.643696
2.908500	1.644652
2.909000	1.643696
2.909500	1.643059
2.910000	1.643696
2.910500	1.644333
2.911000	1.644333
2.911500	1.642422
2.912000	1.642104
2.912500	1.645608
2.913000	1.644652
2.913500	1.641785
2.914000	1.642741
2.914500	1.645608
2.915000	1.644970
2.915500	1.641785
2.916000	1.642104
2.916500	1.646563
2.917000	1.644652
2.917500	1.641148
2.918000	1.642422
2.918500	1.645926
2.919000	1.644652
2.919500	1.640829
2.920000	1.642741
2.920500	1.646563
2.921000	1.644333
2.921500	1.640829
2.922000	1.641785
2.922500	1.646563
2.923000	1.644652
2.923500	1.640192
2.924000	1.643059
2.924500	1.646245
2.925000	1.643696
2.925500	1.640829
2.926000	1.642741
2.926500	1.646882
2.927000	1.643378
2.927500	1.641467
2.928000	1.641785
2.928500	1.645926
2.929000	1.643059
2.929500	1.640829
2.930000	1.643059
2.930500	1.645289
2.931000	1.643696
2.931500	1.641148
2.932000	1.642741
2.932500	1.644970
2.933000	1.643378
2.933500	1.641785
2.934000	1.643378
2.934500	1.644333
2.935000	1.643378
2.935500	1.642422
2.936000	1.644015
2.936500	1.644333
2.937000	1.643059
2.937500	1.642422
2.938000	1.643059
2.938500	1.644333
2.939000	1.642422
2.939500	1.641467
2.940000	1.644015
2.940500	1.644015
2.941000	1.642741
2.941500	1.642104
2.942000	1.644333
2.942500	1.643059
2.943000	1.642741
2.943500	1.643378
2.944000	1.644015
2.944500	1.643696
2.945000	1.642741
2.945500	1.643696
2.946000	1.644015
2.946500	1.643378
2.947000	1.643378
2.947500	1.643696
2.948000	1.642741
2.948500	1.643378
2.949000	1.643696
2.949500	1.644015
2.950000	1.644015
2.950500	1.642741
2.951000	1.643696
2.951500	1.642422
2.952000	1.643696
2.952500	1.642741
2.953000	1.644333
2.953500	1.644970
2.954000	1.642741
2.954500	1.642422
2.955000	1.644652
2.955500	1.645289
2.956000	1.642741
2.956500	1.643696
2.957000	1.645608
2.957500	1.644970
2.958000	1.643059
2.958500	1.643378
2.959000	1.645289
2.959500	1.644970
2.960000	1.642741
2.960500	1.641785
2.961000	1.645289
2.961500	1.644970
2.962000	1.641467
2.962500	1.643059
2.963000	1.646245
2.963500	1.644333
2.964000	1.641148
2.964500	1.642741
2.965000	1.646882
2.965500	1.644652
2.966000	1.640829
2.966500	1.642741
2.967000	1.646882
2.967500	1.644652
2.968000	1.640192
2.968500	1.643378
2.969000	1.646563
2.969500	1.645289
2.970000	1.640511
2.970500	1.643378
2.971000	1.647519
2.971500	1.644970
2.972000	1.641467
2.972500	1.643378
2.973000	1.647200
2.973500	1.645289
2.974000	1.641467
2.974500	1.643059
2.975000	1.647519
2.975500	1.644970
2.976000	1.641148
2.976500	1.644015
2.977000	1.646882
2.977500	1.644652
2.978000	1.640829
2.978500	1.643696
2.979000	1.645926
2.979500	1.644015
2.980000	1.641148
2.980500	1.644015
2.981000	1.646563
2.981500	1.644970
2.982000	1.641785
2.982500	1.644015
2.983000	1.646563
2.983500	1.644015
2.984000	1.642104
2.984500	1.644015
2.985000	1.645926
2.985500	1.643696
2.986000	1.642104
2.986500	1.644015
2.987000	1.645608
2.987500	1.644652
2.988000	1.642104
2.988500	1.644015
2.989000	1.644652
2.989500	1.643696
2.990000	1.642422
2.990500	1.644970
2.991000	1.644333
2.991500	1.643059
2.992000	1.643059
2.992500	1.644652
2.993000	1.645289
2.993500	1.643696
2.994000	1.643696
2.994500	1.644015
2.995000	1.644652
2.995500	1.643059
2.996000	1.643696
2.996500	1.644652
2.997000	1.644652
2.997500	1.642741
2.998000	1.643378
2.998500	1.644970
2.999000	1.644333
2.999500	1.644015
3.000000	1.644015
3.000500	1.644333
3.001000	1.644015
3.001500	1.643059
3.002000	1.644652
3.002500	1.644970
3.003000	1.643696
3.003500	1.643696
3.004000	1.643696
3.004500	1.644015
3.005000	1.643696
3.005500	1.644015
3.006000	1.644015
3.006500	1.643378
3.007000	1.643378
3.007500	1.643696
3.008000	1.644333
3.008500	1.643696
3.009000	1.644015
3.009500	1.644015
3.010000	1.643696
3.010500	1.644015
3.011000	1.642104
3.011500	1.644333
3.012000	1.643696
3.012500	1.643696
3.013000	1.643378
3.013500	1.644652
3.014000	1.645289
3.014500	1.643059
3.015000	1.643696
3.015500	1.645926
3.016000	1.644333
3.016500	1.643059
3.017000	1.643378
3.017500	1.645926
3.018000	1.644015
3.018500	1.641785
3.019000	1.643696
3.019500	1.645608
3.020000	1.645289
3.020500	1.642104
3.021000	1.643696
3.021500	1.646563
3.022000	1.644970
3.022500	1.641785
3.023000	1.642104
3.023500	1.645608
3.024000	1.644652
3.024500	1.641785
3.025000	1.642741
3.025500	1.646245
3.026000	1.644970
3.026500	1.641785
3.027000	1.642741
3.027500	1.646245
3.028000	1.644970
3.028500	1.641467
3.029000	1.643378
3.029500	1.646882
3.030000	1.644970
3.030500	1.640829
3.031000	1.642422
3.031500	1.647200
3.032000	1.644652
3.032500	1.641785
3.033000	1.643059
3.033500	1.647519
3.034000	1.644652
3.034500	1.641467
3.035000	1.643696
3.035500	1.647200
3.036000	1.644970
3.036500	1.642104
3.037000	1.643696
3.037500	1.646882
3.038000	1.644652
3.038500	1.641148
3.039000	1.644652
3.039500	1.645926
3.040000	1.644970
3.040500	1.641467
3.041000	1.643696
3.041500	1.646563
3.042000	1.644652
3.042500	1.643378
3.043000	1.644015
3.043500	1.645926
3.044000	1.644015
3.044500	1.642104
3.045000	1.644015
3.045500	1.646882
3.046000	1.644333
3.046500	1.643378
3.047000	1.643696
3.047500	1.645926
3.048000	1.644652
3.048500	1.643059
3.049000	1.644333
3.049500	1.645289
3.050000	1.643696
3.050500	1.643059
3.051000	1.644652
3.051500	1.645289
3.052000	1.643059
3.052500	1.643378
3.053000	1.645289
3.053500	1.644652
3.054000	1.643696
3.054500	1.643696
3.055000	1.644970
3.055500	1.645608
3.056000	1.644015
3.056500	1.643696
3.057000	1.645608
3.057500	1.644333
3.058000	1.644333
3.058500	1.644015
3.059000	1.645289
3.059500	1.644333
3.060000	1.644015
3.060500	1.644652
3.061000	1.644652
3.061500	1.644970
3.062000	1.643378
3.062500	1.644652
3.063000	1.645608
3.063500	1.644333
3.064000	1.644652
3.064500	1.644970
3.065000	1.644652
3.065500	1.644333
3.066000	1.643696
3.066500	1.644333
3.067000	1.644333
3.067500	1.644015
3.068000	1.645289
3.068500	1.644333
3.069000	1.643696
3.069500	1.644015
3.070000	1.645289
3.070500	1.645289
3.071000	1.643378
3.071500	1.643378
3.072000	1.646245
3.072500	1.645289
3.073000	1.643059
3.073500	1.643696
3.074000	1.645289
3.074500	1.645289
3.075000	1.643059
3.075500	1.643059
3.076000	1.646563
3.076500	1.644970
3.077000	1.642741
3.077500	1.644333
3.078000	1.646245
3.078500	1.645608
3.079000	1.642104
3.079500	1.643696
3.080000	1.646882
3.080500	1.644970
3.081000	1.641785
3.081500	1.643696
3.082000	1.646882
3.082500	1.645289
3.083000	1.641467
3.083500	1.643696
3.084000	1.647200
3.084500	1.646245
3.085000	1.642104
3.085500	1.644333
3.086000	1.647519
3.086500	1.644970
3.087000	1.641148
3.087500	1.643696
3.088000	1.646882
3.088500	1.645289
3.089000	1.641148
3.089500	1.644015
3.090000	1.646882
3.090500	1.644333
3.091000	1.641785
3.091500	1.643378
3.092000	1.648793
3.092500	1.644652
3.093000	1.642741
3.093500	1.643378
3.094000	1.648156
3.094500	1.644652
3.095000	1.641785
3.095500	1.644333
3.096000	1.646882
3.096500	1.644970
3.097000	1.642104
3.097500	1.644333
3.098000	1.646563
3.098500	1.644333
3.099000	1.641785
3.099500	1.643696
3.100000	1.646563
3.100500	1.644652
3.101000	1.642741
3.101500	1.643378
3.102000	1.646245
3.102500	1.644333
3.103000	1.643059
3.103500	1.644652
3.104000	1.645926
3.104500	1.643378
3.105000	1.643378
3.105500	1.644652
3.106000	1.645289
3.106500	1.644015
3.107000	1.643696
3.107500	1.644652
3.108000	1.645289
3.108500	1.644015
3.109000	1.643378
3.109500	1.644333
3.110000	1.644970
3.110500	1.643696
3.111000	1.643378
3.111500	1.644652
3.112000	1.644333
3.112500	1.643696
3.113000	1.644015
3.113500	1.644333
3.114000	1.644333
3.114500	1.643378
3.115000	1.644015
3.115500	1.644970
3.116000	1.644333
3.116500	1.643378
3.117000	1.644015
3.117500	1.644970
3.118000	1.644333
3.118500	1.642741
3.119000	1.644333
3.119500	1.644015
3.120000	1.644015
3.120500	1.643059
3.121000	1.644333
3.121500	1.644652
3.122000	1.643378
3.122500	1.643696
3.123000	1.644333
3.123500	1.643696
3.124000	1.642741
3.124500	1.643059
3.125000	1.644333
3.125500	1.644333
3.126000	1.644015
3.126500	1.644652
3.127000	1.644652
3.127500	1.643696
3.128000	1.643378
3.128500	1.644015
3.129000	1.644970
3.129500	1.643378
3.130000	1.644015
3.130500	1.645289
3.131000	1.644333
3.131500	1.643696
3.132000	1.643378
3.132500	1.645289
3.133000	1.644970
3.133500	1.642422
3.134000	1.643059
3.134500	1.645289
3.135000	1.645608
3.135500	1.642104
3.136000	1.643378
3.136500	1.645289
3.137000	1.644333
3.137500	1.641467
3.138000	1.642741
3.138500	1.646563
3.139000	1.644652
3.139500	1.641467
3.140000	1.643059
3.140500	1.646563
3.141000	1.644652
3.141500	1.641785
3.142000	1.643378
3.142500	1.646882
3.143000	1.644652
3.143500	1.641148
3.144000	1.643378
3.144500	1.646882
3.145000	1.644970
3.145500	1.641467
3.146000	1.642741
3.146500	1.646882
3.147000	1.644333
3.147500	1.640829
3.148000	1.643059
3.148500	1.646563
3.149000	1.644652
3.149500	1.641148
3.150000	1.643059
3.150500	1.646245
3.151000	1.644015
3.151500	1.641467
3.152000	1.644015
3.152500	1.645926
3.153000	1.643696
3.153500	1.641467
3.154000	1.644015
3.154500	1.645608
3.155000	1.644333
3.155500	1.642741
3.156000	1.643059
3.156500	1.645289
3.157000	1.643696
3.157500	1.642422
3.158000	1.644015
3.158500	1.644970
3.159000	1.643696
3.159500	1.642741
3.160000	1.644970
3.160500	1.645289
3.161000	1.643378
3.161500	1.643059
3.162000	1.644652
3.162500	1.644015
3.163000	1.644015
3.163500	1.643378
3.164000	1.644015
3.164500	1.644652
3.165000	1.643378
3.165500	1.644015
3.166000	1.644652
3.166500	1.644015
3.167000	1.644015
3.167500	1.644333
3.168000	1.643696
3.168500	1.643059
3.169000	1.644015
3.169500	1.644333
3.170000	1.644970
3.170500	1.644970
3.171000	1.643378
3.171500	1.644652
3.172000	1.644652
3.172500	1.643378
3.173000	1.644333
3.173500	1.644333
3.174000	1.644015
3.174500	1.643059
3.175000	1.644015
3.175500	1.644652
3.176000	1.644015
3.176500	1.643378
3.177000	1.644333
3.177500	1.644970
3.178000	1.642741
3.178500	1.642422
3.179000	1.645289
3.179500	1.645289
3.180000	1.643378
3.180500	1.643378
3.181000	1.644652
3.181500	1.644970
3.182000	1.643059
3.182500	1.643696
3.183000	1.645289
3.183500	1.644970
3.184000	1.642104
3.184500	1.644015
3.185000	1.645926
3.185500	1.644652
3.186000	1.641785
3.186500	1.643059
3.187000	1.646563
3.187500	1.644970
3.188000	1.642422
3.188500	1.643378
3.189000	1.646882
3.189500	1.645608
3.190000	1.641467
3.190500	1.643378
3.191000	1.647200
3.191500	1.645289
3.192000	1.642422
3.192500	1.643696
3.193000	1.647200
3.193500	1.645608
3.194000	1.641467
3.194500	1.643378
3.195000	1.647200
3.195500	1.644970
3.196000	1.641467
3.196500	1.643378
3.197000	1.647200
3.197500	1.644970
3.198000	1.642104
3.198500	1.644015
3.199000	1.646882
3.199500	1.645289
3.200000	1.642104
3.200500	1.643696
3.201000	1.646563
3.201500	1.644970
3.202000	1.641148
3.202500	1.643059
3.203000	1.647519
3.203500	1.645289
3.204000	1.642104
3.204500	1.644015
3.205000	1.646882
3.205500	1.644652
3.206000	1.642104
3.206500	1.644333
3.207000	1.646882
3.207500	1.644652
3.208000	1.641467
3.208500	1.644652
3.209000	1.645608
3.209500	1.644015
3.210000	1.643059
3.210500	1.644015
3.211000	1.646245
3.211500	1.643378
3.212000	1.642422
3.212500	1.644970
3.213000	1.645608
3.213500	1.644333
3.214000	1.642741
3.214500	1.644015
3.215000	1.644333
3.215500	1.644333
3.216000	1.643378
3.216500	1.644652
3.217000	1.644652
3.217500	1.643059
3.218000	1.643696
3.218500	1.644970
3.219000	1.644015
3.219500	1.643378
3.220000	1.643696
3.220500	1.644015
3.221000	1.643696
3.221500	1.643059
3.222000	1.644015
3.222500	1.644970
3.223000	1.643059
3.223500	1.643059
3.224000	1.644015
3.224500	1.644970
3.225000	1.644333
3.225500	1.643696
3.226000	1.644015
3.226500	1.643696
3.227000	1.644015
3.227500	1.644333
3.228000	1.644652
3.228500	1.644015
3.229000	1.642741
3.229500	1.644333
3.230000	1.644333
3.230500	1.643378
3.231000	1.642741
3.231500	1.644333
3.232000	1.644652
3.232500	1.642104
3.233000	1.643059
3.233500	1.643696
3.234000	1.644652
3.234500	1.642422
3.235000	1.643378
3.235500	1.644970
3.236000	1.644652
3.236500	1.642422
3.237000	1.642741
3.237500	1.644333
3.238000	1.644333
3.238500	1.642741
3.239000	1.642422
3.239500	1.645926
3.240000	1.644970
3.240500	1.641148
3.241000	1.643059
3.241500	1.645926
3.242000	1.644970
3.242500	1.641785
3.243000	1.643059
3.243500	1.646882
3.244000	1.645608
3.244500	1.641148
3.245000	1.643059
3.245500	1.647200
3.246000	1.646245
3.246500	1.641467
3.247000	1.642741
3.247500	1.646563
3.248000	1.643696
3.248500	1.641785
3.249000	1.644015
3.249500	1.646245
3.250000	1.644970
3.250500	1.641148
3.251000	1.643059
3.251500	1.647519
3.252000	1.644652
3.252500	1.641148
3.253000	1.644015
3.253500	1.646882
3.254000	1.644015
3.254500	1.641785
3.255000	1.643696
3.255500	1.646882
3.256000	1.644015
3.256500	1.642104
3.257000	1.643696
3.257500	1.645926
3.258000	1.643696
3.258500	1.642104
3.259000	1.644015
3.259500	1.646563
3.260000	1.644970
3.260500	1.642422
3.261000	1.644970
3.261500	1.645289
3.262000	1.644333
3.262500	1.642741
3.263000	1.644015
3.263500	1.645926
3.264000	1.643696
3.264500	1.643059
3.265000	1.645289
3.265500	1.644970
3.266000	1.643696
3.266500	1.644015
3.267000	1.645608
3.267500	1.644970
3.268000	1.642741
3.268500	1.644015
3.269000	1.644970
3.269500	1.644652
3.270000	1.644015
3.270500	1.645289
3.271000	1.644652
3.271500	1.644333
3.272000	1.644015
3.272500	1.645289
3.273000	1.645289
3.273500	1.644015
3.274000	1.644015
3.274500	1.644333
3.275000	1.644970
3.275500	1.644333
3.276000	1.644970
3.276500	1.644970
3.277000	1.645289
3.277500	1.644333
3.278000	1.644652
3.278500	1.644015
3.279000	1.643696
3.279500	1.643378
3.280000	1.644970
3.280500	1.644970
3.281000	1.643696
3.281500	1.644015
3.282000	1.645289
3.282500	1.645608
3.283000	1.642741
3.283500	1.643378
3.284000	1.645289
3.284500	1.645289
3.285000	1.643696
3.285500	1.644015
3.286000	1.646245
3.286500	1.644970
3.287000	1.642422
3.287500	1.643059
3.288000	1.646245
3.288500	1.644652
3.289000	1.641785
3.289500	1.643059
3.290000	1.645608
3.290500	1.645289
3.291000	1.641785
3.291500	1.643378
3.292000	1.647519
3.292500	1.644652
3.293000	1.641148
3.293500	1.644015
3.294000	1.647200
3.294500	1.644970
3.295000	1.641148
3.295500	1.643378
3.296000	1.647519
3.296500	1.644652
3.297000	1.641467
3.297500	1.643059
3.298000	1.646882
3.298500	1.643696
3.299000	1.642104
3.299500	1.643696
3.300000	1.645608
3.300500	1.643378
3.301000	1.642104
3.301500	1.643378
3.302000	1.645608
3.302500	1.644015
3.303000	1.641785
3.303500	1.643696
3.304000	1.644970
3.304500	1.643378
3.305000	1.641785
3.305500	1.644015
3.306000	1.644652
3.306500	1.642741
3.307000	1.642422
3.307500	1.644970
3.308000	1.643696
3.308500	1.643059
3.309000	1.643059
3.309500	1.643059
3.310000	1.643378
3.310500	1.643378
3.311000	1.643378
3.311500	1.644015
3.312000	1.643696
3.312500	1.643059
3.313000	1.643378
3.313500	1.644333
3.314000	1.643378
3.314500	1.643059
3.315000	1.643696
3.315500	1.643378
3.316000	1.643696
3.316500	1.642422
3.317000	1.643696
3.317500	1.644333
3.318000	1.642741
3.318500	1.644333
3.319000	1.644015
3.319500	1.643059
3.320000	1.643059
3.320500	1.643378
3.321000	1.643378
3.321500	1.642104
3.322000	1.642422
3.322500	1.643696
3.323000	1.643696
3.323500	1.642104
3.324000	1.642422
3.324500	1.644333
3.325000	1.644015
3.325500	1.643059
3.326000	1.642741
3.326500	1.644652
3.327000	1.644015
3.327500	1.643059
3.328000	1.642422
3.328500	1.644652
3.329000	1.644015
3.329500	1.642104
3.330000	1.642422
3.330500	1.645289
3.331000	1.643696
3.331500	1.640829
3.332000	1.643378
3.332500	1.646245
3.333000	1.644015
3.333500	1.640511
3.334000	1.642741
3.334500	1.646245
3.335000	1.644333
3.335500	1.640829
3.336000	1.641785
3.336500	1.646245
3.337000	1.644015
3.337500	1.641148
3.338000	1.642104
3.338500	1.648474
3.339000	1.644333
3.339500	1.640192
3.340000	1.643059
3.340500	1.647200
3.341000	1.644652
3.341500	1.640829
3.342000	1.642741
3.342500	1.646245
3.343000	1.644333
3.343500	1.640511
3.344000	1.643059
3.344500	1.646563
3.345000	1.643696
3.345500	1.641148
3.346000	1.643059
3.346500	1.645926
3.347000	1.644333
3.347500	1.641467
3.348000	1.644015
3.348500	1.645608
3.349000	1.643696
3.349500	1.642104
3.350000	1.644333
3.350500	1.644333
3.351000	1.643059
3.351500	1.641467
3.352000	1.643696
3.352500	1.645608
3.353000	1.643696
3.353500	1.641785
3.354000	1.644015
3.354500	1.645608
3.355000	1.643378
3.355500	1.642422
3.356000	1.644333
3.356500	1.644015
3.357000	1.642741
3.357500	1.642422
3.358000	1.644015
3.358500	1.644970
3.359000	1.643696
3.359500	1.643378
3.360000	1.644015
3.360500	1.644652
3.361000	1.642741
3.361500	1.643378
3.362000	1.644970
3.362500	1.644333
3.363000	1.643059
3.363500	1.642422
3.364000	1.644015
3.364500	1.643696
3.365000	1.643378
3.365500	1.643378
3.366000	1.643696
3.366500	1.643696
3.367000	1.642741
3.367500	1.643378
3.368000	1.644970
3.368500	1.643696
3.369000	1.643059
3.369500	1.643696
3.370000	1.644970
3.370500	1.644015
3.371000	1.642741
3.371500	1.643696
3.372000	1.644015
3.372500	1.642422
3.373000	1.643059
3.373500	1.643059
3.374000	1.643696
3.374500	1.643378
3.375000	1.643059
3.375500	1.644333
3.376000	1.643696
3.376500	1.641785
3.377000	1.643696
3.377500	1.643378
3.378000	1.643059
3.378500	1.642741
3.379000	1.643378
3.379500	1.644333
3.380000	1.642741
3.380500	1.641785
3.381000	1.644015
3.381500	1.643696
3.382000	1.642741
3.382500	1.642422
3.383000	1.644015
3.383500	1.643696
3.384000	1.642741
3.384500	1.641785
3.385000	1.644652
3.385500	1.644333
3.386000	1.642741
3.386500	1.642741
3.387000	1.644652
3.387500	1.643696
3.388000	1.641785
3.388500	1.641785
3.389000	1.644652
3.389500	1.643378
3.390000	1.641785
3.390500	1.642422
3.391000	1.644652
3.391500	1.644015
3.392000	1.641785
3.392500	1.642104
3.393000	1.645289
3.393500	1.644333
3.394000	1.640511
3.394500	1.642422
3.395000	1.645289
3.395500	1.644015
3.396000	1.640829
3.396500	1.643059
3.397000	1.645608
3.397500	1.643696
3.398000	1.641148
3.398500	1.640829
3.399000	1.645608
3.399500	1.644015
3.400000	1.641148
3.400500	1.643059
3.401000	1.645926
3.401500	1.644015
3.402000	1.640511
3.402500	1.642104
3.403000	1.645289
3.403500	1.644015
3.404000	1.640511
3.404500	1.642422
3.405000	1.645926
3.405500	1.644652
3.406000	1.640511
3.406500	1.643378
3.407000	1.645608
3.407500	1.643378
3.408000	1.640829
3.408500	1.642741
3.409000	1.645289
3.409500	1.642741
3.410000	1.641148
3.410500	1.642422
3.411000	1.645289
3.411500	1.643696
3.412000	1.641148
3.412500	1.642741
3.413000	1.645926
3.413500	1.643378
3.414000	1.640829
3.414500	1.643059
3.415000	1.645289
3.415500	1.642741
3.416000	1.642104
3.416500	1.643378
3.417000	1.644652
3.417500	1.643378
3.418000	1.641785
3.418500	1.643696
3.419000	1.644015
3.419500	1.642741
3.420000	1.641785
3.420500	1.643378
3.421000	1.644015
3.421500	1.643059
3.422000	1.642104
3.422500	1.643696
3.423000	1.644970
3.423500	1.642741
3.424000	1.642741
3.424500	1.643696
3.425000	1.643696
3.425500	1.642104
3.426000	1.642741
3.426500	1.643696
3.427000	1.643059
3.427500	1.643059
3.428000	1.643059
3.428500	1.643696
3.429000	1.643696
3.429500	1.642741
3.430000	1.643378
3.430500	1.644015
3.431000	1.643378
3.431500	1.643059
3.432000	1.643378
3.432500	1.644015
3.433000	1.643059
3.433500	1.643378
3.434000	1.643696
3.434500	1.643696
3.435000	1.643059
3.435500	1.643059
3.436000	1.643696
3.436500	1.644015
3.437000	1.643378
3.437500	1.643696
3.438000	1.643696
3.438500	1.644015
3.439000	1.642741
3.439500	1.643696
3.440000	1.644015
3.440500	1.643378
3.441000	1.642104
3.441500	1.644652
3.442000	1.645289
3.442500	1.644015
3.443000	1.643696
3.443500	1.644333
3.444000	1.643378
3.444500	1.642741
3.445000	1.643696
3.445500	1.644333
3.446000	1.645289
3.446500	1.642741
3.447000	1.643059
3.447500	1.645608
3.448000	1.644652
3.448500	1.642422
3.449000	1.643378
3.449500	1.646245
3.450000	1.644970
3.450500	1.641148
3.451000	1.643059
3.451500	1.646245
3.452000	1.644015
3.452500	1.641785
3.453000	1.642422
3.453500	1.647200
3.454000	1.644970
3.454500	1.641467
3.455000	1.643378
3.455500	1.646563
3.456000	1.645926
3.456500	1.641785
3.457000	1.643696
3.457500	1.646882
3.458000	1.644652
3.458500	1.641148
3.459000	1.643696
3.459500	1.646563
3.460000	1.644652
3.460500	1.641467
3.461000	1.643059
3.461500	1.646563
3.462000	1.644970
3.462500	1.641467
3.463000	1.643059
3.463500	1.646245
3.464000	1.644333
3.464500	1.641148
3.465000	1.643696
3.465500	1.646563
3.466000	1.644652
3.466500	1.641785
3.467000	1.644015
3.467500	1.645926
3.468000	1.644015
3.468500	1.642422
3.469000	1.643378
3.469500	1.645926
3.470000	1.644333
3.470500	1.642741
3.471000	1.643696
3.471500	1.645289
3.472000	1.644333
3.472500	1.642422
3.473000	1.644333
3.473500	1.645608
3.474000	1.643059
3.474500	1.643059
3.475000	1.644970
3.475500	1.644970
3.476000	1.644015
3.476500	1.643378
3.477000	1.644333
3.477500	1.645289
3.478000	1.644015
3.478500	1.643059
3.479000	1.644652
3.479500	1.644970
3.480000	1.643378
3.480500	1.643378
3.481000	1.644652
3.481500	1.644970
3.482000	1.644333
3.482500	1.644015
3.483000	1.645289
3.483500	1.644015
3.484000	1.643378
3.484500	1.643378
3.485000	1.644970
3.485500	1.644333
3.486000	1.643378
3.486500	1.643378
3.487000	1.644970
3.487500	1.644015
3.488000	1.643696
3.488500	1.644333
3.489000	1.644333
3.489500	1.644015
3.490000	1.643059
3.490500	1.643696
3.491000	1.644333
3.491500	1.644015
3.492000	1.643696
3.492500	1.644333
3.493000	1.644015
3.493500	1.644015
3.494000	1.644015
3.494500	1.643696
3.495000	1.643378
3.495500	1.643378
3.496000	1.644333
3.496500	1.644015
3.497000	1.643696
3.497500	1.642741
3.498000	1.644015
3.498500	1.644333
3.499000	1.643059
3.499500	1.643696
3.500000	1.645289
3.500500	1.644652
3.501000	1.642422
3.501500	1.642741
3.502000	1.645608
3.502500	1.644970
3.503000	1.641467
3.503500	1.643059
3.504000	1.645608
3.504500	1.645289
3.505000	1.642422
3.505500	1.642741
3.506000	1.645926
3.506500	1.645289
3.507000	1.641785
3.507500	1.644015
3.508000	1.646882
3.508500	1.645289
3.509000	1.641785
3.509500	1.643378
3.510000	1.646563
3.510500	1.644652
3.511000	1.641148
3.511500	1.642104
3.512000	1.646563
3.512500	1.645289
3.513000	1.641785
3.513500	1.643378
3.514000	1.647200
3.514500	1.644970
3.515000	1.641467
3.515500	1.643696
3.516000	1.647200
3.516500	1.644333
3.517000	1.641467
3.517500	1.643696
3.518000	1.647519
3.518500	1.644652
3.519000	1.642422
3.519500	1.644652
3.520000	1.647200
3.520500	1.645926
3.521000	1.641467
3.521500	1.644333
3.522000	1.647200
3.522500	1.644652
3.523000	1.641785
3.523500	1.643696
3.524000	1.646882
3.524500	1.644333
3.525000	1.641785
3.525500	1.644015
3.526000	1.646563
3.526500	1.644970
3.527000	1.642422
3.527500	1.644970
3.528000	1.645608
3.528500	1.644333
3.529000	1.642422
3.529500	1.644652
3.530000	1.646245
3.530500	1.644652
3.531000	1.643059
3.531500	1.644333
3.532000	1.645608
3.532500	1.643696
3.533000	1.643696
3.533500	1.645289
3.534000	1.645926
3.534500	1.644333
3.535000	1.644015
3.535500	1.644970
3.536000	1.645289
3.536500	1.643696
3.537000	1.643378
3.537500	1.644333
3.538000	1.644015
3.538500	1.644015
3.539000	1.644333
3.539500	1.645608
3.540000	1.644970
3.540500	1.643059
3.541000	1.644015
3.541500	1.645289
3.542000	1.644015
3.542500	1.644970
3.543000	1.644333
3.543500	1.644652
3.544000	1.644333
3.544500	1.644015
3.545000	1.644333
3.545500	1.644970
3.546000	1.644015
3.546500	1.643696
3.547000	1.644970
3.547500	1.644333
3.548000	1.643696
3.548500	1.643696
3.549000	1.644333
3.549500	1.644333
3.550000	1.643696
3.550500	1.644015
3.551000	1.644015
3.551500	1.644015
3.552000	1.643059
3.552500	1.644015
3.553000	1.644333
3.553500	1.643696
3.554000	1.643059
3.554500	1.645289
3.555000	1.644970
3.555500	1.643378
3.556000	1.643059
3.556500	1.644652
3.557000	1.644970
3.557500	1.642741
3.558000	1.644015
3.558500	1.645289
3.559000	1.644333
3.559500	1.642104
3.560000	1.643059
3.560500	1.646563
3.561000	1.644652
3.561500	1.642104
3.562000	1.642741
3.562500	1.646563
3.563000	1.645289
3.563500	1.641785
3.564000	1.642422
3.564500	1.645926
3.565000	1.644333
3.565500	1.641785
3.566000	1.642422
3.566500	1.646563
3.567000	1.644652
3.567500	1.641467
3.568000	1.643059
3.568500	1.646882
3.569000	1.644970
3.569500	1.640511
3.570000	1.642741
3.570500	1.646882
3.571000	1.644652
3.571500	1.641148
3.572000	1.643378
3.572500	1.645608
3.573000	1.644970
3.573500	1.640511
3.574000	1.643059
3.574500	1.647200
3.575000	1.644015
3.575500	1.640511
3.576000	1.643696
3.576500	1.645926
3.577000	1.644015
3.577500	1.641148
3.578000	1.644015
3.578500	1.645608
3.579000	1.644015
3.579500	1.642104
3.580000	1.643696
3.580500	1.645289
3.581000	1.643378
3.581500	1.642104
3.582000	1.644333
3.582500	1.645608
3.583000	1.643378
3.583500	1.642104
3.584000	1.644652
3.584500	1.645289
3.585000	1.644015
3.585500	1.642741
3.586000	1.644015
3.586500	1.644970
3.587000	1.643696
3.587500	1.642422
3.588000	1.644015
3.588500	1.644333
3.589000	1.643378
3.589500	1.643378
3.590000	1.644970
3.590500	1.645289
3.591000	1.643059
3.591500	1.643696
3.592000	1.644652
3.592500	1.644652
3.593000	1.643696
3.593500	1.644015
3.594000	1.644970
3.594500	1.644652
3.595000	1.643378
3.595500	1.644015
3.596000	1.644970
3.596500	1.644652
3.597000	1.644333
3.597500	1.644333
3.598000	1.644652
3.598500	1.644333
3.599000	1.643696
3.599500	1.644015
3.600000	1.644652
3.600500	1.644333
3.601000	1.644015
3.601500	1.644970
3.602000	1.644333
3.602500	1.644652
3.603000	1.643378
3.603500	1.644652
3.604000	1.644333
3.604500	1.643696
3.605000	1.644652
3.605500	1.644333
3.606000	1.644652
3.606500	1.643696
3.607000	1.644652
3.607500	1.644015
3.608000	1.643378
3.608500	1.643378
3.609000	1.644652
3.609500	1.644333
3.610000	1.643696
3.610500	1.643059
3.611000	1.644333
3.611500	1.644333
3.612000	1.643059
3.612500	1.643059
3.613000	1.644970
3.613500	1.645289
3.614000	1.641785
3.614500	1.643059
3.615000	1.645926
3.615500	1.644333
3.616000	1.643696
3.616500	1.643378
3.617000	1.645926
3.617500	1.644333
3.618000	1.641785
3.618500	1.643696
3.619000	1.645608
3.619500	1.644970
3.620000	1.641785
3.620500	1.642741
3.621000	1.646882
3.621500	1.645608
3.622000	1.641467
3.622500	1.643378
3.623000	1.646563
3.623500	1.645608
3.624000	1.641785
3.624500	1.643378
3.625000	1.647200
3.625500	1.645289
3.626000	1.641785
3.626500	1.642741
3.627000	1.647200
3.627500	1.644970
3.628000	1.641148
3.628500	1.643378
3.629000	1.646882
3.629500	1.644970
3.630000	1.641785
3.630500	1.644015
3.631000	1.646563
3.631500	1.644652
3.632000	1.641467
3.632500	1.644015
3.633000	1.647519
3.633500	1.644970
3.634000	1.641467
3.634500	1.644015
3.635000	1.647200
3.635500	1.644652
3.636000	1.641467
3.636500	1.642741
3.637000	1.646882
3.637500	1.644333
3.638000	1.641467
3.638500	1.644015
3.639000	1.646245
3.639500	1.643696
3.640000	1.642104
3.640500	1.644015
3.641000	1.645289
3.641500	1.644015
3.642000	1.643378
3.642500	1.644015
3.643000	1.645926
3.643500	1.644015
3.644000	1.644015
3.644500	1.644970
3.645000	1.645926
3.645500	1.644333
3.646000	1.643059
3.646500	1.644333
3.647000	1.644970
3.647500	1.644015
3.648000	1.644333
3.648500	1.644970
3.649000	1.645608
3.649500	1.643696
3.650000	1.645289
3.650500	1.645289
3.651000	1.644333
3.651500	1.644015
3.652000	1.644970
3.652500	1.644970
3.653000	1.644333
3.653500	1.643378
3.654000	1.644652
3.654500	1.644970
3.655000	1.644015
3.655500	1.644652
3.656000	1.644333
3.656500	1.644652
3.657000	1.644015
3.657500	1.643696
3.658000	1.645608
3.658500	1.644652
3.659000	1.644015
3.659500	1.644970
3.660000	1.645289
3.660500	1.644333
3.661000	1.644015
3.661500	1.645289
3.662000	1.645926
3.662500	1.643378
3.663000	1.643378
3.663500	1.645289
3.664000	1.644652
3.664500	1.643696
3.665000	1.643696
3.665500	1.645608
3.666000	1.645289
3.666500	1.643059
3.667000	1.643696
3.667500	1.646563
3.668000	1.645289
3.668500	1.642741
3.669000	1.643059
3.669500	1.646245
3.670000	1.645926
3.670500	1.641467
3.671000	1.643059
3.671500	1.646882
3.672000	1.644970
3.672500	1.642104
3.673000	1.643378
3.673500	1.646882
3.674000	1.644333
3.674500	1.642104
3.675000	1.644015
3.675500	1.646882
3.676000	1.645289
3.676500	1.641467
3.677000	1.643378
3.677500	1.646882
3.678000	1.644652
3.678500	1.640829
3.679000	1.642741
3.679500	1.646882
3.680000	1.644333
3.680500	1.641785
3.681000	1.643696
3.681500	1.647200
3.682000	1.644333
3.682500	1.641785
3.683000	1.644652
3.683500	1.647200
3.684000	1.644652
3.684500	1.641785
3.685000	1.644015
3.685500	1.644970
3.686000	1.644652
3.686500	1.643059
3.687000	1.644333
3.687500	1.646245
3.688000	1.643696
3.688500	1.642741
3.689000	1.644970
3.689500	1.646245
3.690000	1.644333
3.690500	1.643696
3.691000	1.644970
3.691500	1.645289
3.692000	1.645289
3.692500	1.642741
3.693000	1.645289
3.693500	1.645289
3.694000	1.642104
3.694500	1.643059
3.695000	1.644652
3.695500	1.644015
3.696000	1.642741
3.696500	1.643696
3.697000	1.645289
3.697500	1.644970
3.698000	1.643378
3.698500	1.644333
3.699000	1.645289
3.699500	1.644333
3.700000	1.643696
3.700500	1.645289
3.701000	1.644652
3.701500	1.644333
3.702000	1.643696
3.702500	1.644333
3.703000	1.644970
3.703500	1.644015
3.704000	1.643696
3.704500	1.644015
3.705000	1.644333
3.705500	1.643696
3.706000	1.644333
3.706500	1.644970
3.707000	1.643696
3.707500	1.643696
3.708000	1.644652
3.708500	1.644970
3.709000	1.643059
3.709500	1.643378
3.710000	1.644970
3.710500	1.645289
3.711000	1.642741
3.711500	1.643378
3.712000	1.645926
3.712500	1.646245
3.713000	1.642422
3.713500	1.642741
3.714000	1.645926
3.714500	1.645608
3.715000	1.641467
3.715500	1.642741
3.716000	1.646882
3.716500	1.645608
3.717000	1.642104
3.717500	1.643378
3.718000	1.646245
3.718500	1.645608
3.719000	1.641785
3.719500	1.644015
3.720000	1.646882
3.720500	1.644970
3.721000	1.641467
3.721500	1.643378
3.722000	1.647200
3.722500	1.646245
3.723000	1.641785
3.723500	1.643378
3.724000	1.646563
3.724500	1.645608
3.725000	1.642422
3.725500	1.643378
3.726000	1.646563
3.726500	1.645289
3.727000	1.642104
3.727500	1.644015
3.728000	1.646882
3.728500	1.644333
3.729000	1.641148
3.729500	1.644333
3.730000	1.646563
3.730500	1.644015
3.731000	1.642104
3.731500	1.646245
3.732000	1.646882
3.732500	1.644333
3.733000	1.642104
3.733500	1.643378
3.734000	1.646245
3.734500	1.645289
3.735000	1.642104
3.735500	1.644015
3.736000	1.645926
3.736500	1.643696
3.737000	1.642741
3.737500	1.644333
3.738000	1.645289
3.738500	1.643059
3.739000	1.643378
3.739500	1.644970
3.740000	1.645289
3.740500	1.643059
3.741000	1.643059
3.741500	1.644970
3.742000	1.644652
3.742500	1.643696
3.743000	1.643378
3.743500	1.644333
3.744000	1.644015
3.744500	1.643059
3.745000	1.644015
3.745500	1.644652
3.746000	1.644333
3.746500	1.642741
3.747000	1.644652
3.747500	1.644970
3.748000	1.643378
3.748500	1.643696
3.749000	1.644970
3.749500	1.644652
3.750000	1.643696
3.750500	1.644333
3.751000	1.644652
3.751500	1.646563
3.752000	1.644015
3.752500	1.644333
3.753000	1.644015
3.753500	1.644652
3.754000	1.644015
3.754500	1.644333
3.755000	1.645289
3.755500	1.642741
3.756000	1.642422
3.756500	1.644970
3.757000	1.644652
3.757500	1.643059
3.758000	1.643696
3.758500	1.645289
3.759000	1.645608
3.759500	1.643059
3.760000	1.642741
3.760500	1.645926
3.761000	1.645926
3.761500	1.644015
3.762000	1.644652
3.762500	1.645926
3.763000	1.644652
3.763500	1.641785
3.764000	1.643378
3.764500	1.647200
3.765000	1.645289
3.765500	1.642422
3.766000	1.643378
3.766500	1.647200
3.767000	1.645289
3.767500	1.641785
3.768000	1.643696
3.768500	1.647519
3.769000	1.645608
3.769500	1.641785
3.770000	1.644015
3.770500	1.647519
3.771000	1.645608
3.771500	1.641467
3.772000	1.643696
3.772500	1.646882
3.773000	1.645289
3.773500	1.641785
3.774000	1.644652
3.774500	1.647519
3.775000	1.645289
3.775500	1.641467
3.776000	1.644652
3.776500	1.646563
3.777000	1.645289
3.777500	1.642741
3.778000	1.644015
3.778500	1.646882
3.779000	1.644333
3.779500	1.642104
3.780000	1.643378
3.780500	1.646882
3.781000	1.644333
3.781500	1.643059
3.782000	1.644333
3.782500	1.646245
3.783000	1.644970
3.783500	1.642741
3.784000	1.644970
3.784500	1.644970
3.785000	1.644652
3.785500	1.642422
3.786000	1.645608
3.786500	1.645926
3.787000	1.643378
3.787500	1.643378
3.788000	1.644970
3.788500	1.645289
3.789000	1.643378
3.789500	1.643696
3.790000	1.645289
3.790500	1.645608
3.791000	1.644015
3.791500	1.644333
3.792000	1.645289
3.792500	1.644652
3.793000	1.643696
3.793500	1.644333
3.794000	1.644652
3.794500	1.644652
3.795000	1.643696
3.795500	1.644015
3.796000	1.644970
3.796500	1.643696
3.797000	1.643378
3.797500	1.644333
3.798000	1.645289
3.798500	1.644015
3.799000	1.643696
3.799500	1.644333
3.800000	1.644970
3.800500	1.643696
3.801000	1.644333
3.801500	1.645289
3.802000	1.645289
3.802500	1.644015
3.803000	1.644652
3.803500	1.644333
3.804000	1.643378
3.804500	1.644015
3.805000	1.644970
3.805500	1.645289
3.806000	1.643696
3.806500	1.643378
3.807000	1.645289
3.807500	1.644333
3.808000	1.643059
3.808500	1.643696
3.809000	1.644970
3.809500	1.645289
3.810000	1.642104
3.810500	1.643059
3.811000	1.645608
3.811500	1.644333
3.812000	1.643059
3.812500	1.644015
3.813000	1.646882
3.813500	1.645289
3.814000	1.642741
3.814500	1.643059
3.815000	1.646882
3.815500	1.645926
3.816000	1.642104
3.816500	1.644652
3.817000	1.647200
3.817500	1.644333
3.818000	1.642104
3.818500	1.644015
3.819000	1.646563
3.819500	1.645926
3.820000	1.642422
3.820500	1.643378
3.821000	1.647837
3.821500	1.645289
3.822000	1.641785
3.822500	1.643378
3.823000	1.647200
3.823500	1.645289
3.824000	1.641467
3.824500	1.643696
3.825000	1.647200
3.825500	1.645289
3.826000	1.642104
3.826500	1.644333
3.827000	1.647200
3.827500	1.645289
3.828000	1.641467
3.828500	1.644015
3.829000	1.647200
3.829500	1.644652
3.830000	1.642104
3.830500	1.644333
3.831000	1.646882
3.831500	1.644652
3.832000	1.641467
3.832500	1.644015
3.833000	1.646882
3.833500	1.644333
3.834000	1.642422
3.834500	1.644970
3.835000	1.646882
3.835500	1.644970
3.836000	1.643059
3.836500	1.644970
3.837000	1.645608
3.837500	1.644652
3.838000	1.643378
3.838500	1.644970
3.839000	1.646245
3.839500	1.645289
3.840000	1.643696
3.840500	1.645926
3.841000	1.646563
3.841500	1.644652
3.842000	1.643696
3.842500	1.644970
3.843000	1.645926
3.843500	1.644970
3.844000	1.644015
3.844500	1.646245
3.845000	1.646245
3.845500	1.644652
3.846000	1.645289
3.846500	1.645926
3.847000	1.644970
3.847500	1.643696
3.848000	1.645289
3.848500	1.645926
3.849000	1.645926
3.849500	1.644970
3.850000	1.644333
3.850500	1.645289
3.851000	1.644015
3.851500	1.645289
3.852000	1.645289
3.852500	1.645289
3.853000	1.644970
3.853500	1.644333
3.854000	1.646245
3.854500	1.645289
3.855000	1.644970
3.855500	1.645608
3.856000	1.645289
3.856500	1.645608
3.857000	1.644970
3.857500	1.645289
3.858000	1.645608
3.858500	1.644970
3.859000	1.644333
3.859500	1.645608
3.860000	1.645926
3.860500	1.644652
3.861000	1.643696
3.861500	1.645608
3.862000	1.644970
3.862500	1.644333
3.863000	1.644015
3.863500	1.645608
3.864000	1.645926
3.864500	1.643378
3.865000	1.643696
3.865500	1.646245
3.866000	1.645926
3.866500	1.643378
3.867000	1.644333
3.867500	1.646563
3.868000	1.645608
3.868500	1.642741
3.869000	1.644015
3.869500	1.647200
3.870000	1.644970
3.870500	1.642422
3.871000	1.644333
3.871500	1.647519
3.872000	1.646563
3.872500	1.643059
3.873000	1.644015
3.873500	1.647519
3.874000	1.645926
3.874500	1.642104
3.875000	1.644015
3.875500	1.648474
3.876000	1.645926
3.876500	1.642422
3.877000	1.644333
3.877500	1.647519
3.878000	1.644970
3.878500	1.642741
3.879000	1.644652
3.879500	1.647519
3.880000	1.645289
3.880500	1.642104
3.881000	1.644015
3.881500	1.647200
3.882000	1.644970
3.882500	1.642104
3.883000	1.643378
3.883500	1.647200
3.884000	1.644652
3.884500	1.642104
3.885000	1.644970
3.885500	1.646882
3.886000	1.645289
3.886500	1.643378
3.887000	1.644015
3.887500	1.646882
3.888000	1.644652
3.888500	1.643696
3.889000	1.644970
3.889500	1.645926
3.890000	1.645289
3.890500	1.643378
3.891000	1.644333
3.891500	1.646245
3.892000	1.644015
3.892500	1.643378
3.893000	1.644652
3.893500	1.645608
3.894000	1.644333
3.894500	1.644015
3.895000	1.645926
3.895500	1.644970
3.896000	1.644333
3.896500	1.644015
3.897000	1.645289
3.897500	1.644970
3.898000	1.644015
3.898500	1.644333
3.899000	1.645289
3.899500	1.644333
3.900000	1.644333
3.900500	1.644333
3.901000	1.644333
3.901500	1.644333
3.902000	1.643059
3.902500	1.644333
3.903000	1.644970
3.903500	1.644652
3.904000	1.644015
3.904500	1.644652
3.905000	1.645289
3.905500	1.644015
3.906000	1.645608
3.906500	1.644970
3.907000	1.645289
3.907500	1.643696
3.908000	1.644652
3.908500	1.644652
3.909000	1.644652
3.909500	1.643378
3.910000	1.644970
3.910500	1.645289
3.911000	1.644333
3.911500	1.644015
3.912000	1.644970
3.912500	1.645608
3.913000	1.643378
3.913500	1.644015
3.914000	1.645608
3.914500	1.644652
3.915000	1.643696
3.915500	1.644333
3.916000	1.645608
3.916500	1.645608
3.917000	1.642422
3.917500	1.644015
3.918000	1.645926
3.918500	1.645608
3.919000	1.642741
3.919500	1.643378
3.920000	1.646245
3.920500	1.646245
3.921000	1.642422
3.921500	1.643378
3.922000	1.646245
3.922500	1.645289
3.923000	1.642104
3.923500	1.642741
3.924000	1.647837
3.924500	1.646245
3.925000	1.642741
3.925500	1.644015
3.926000	1.647200
3.926500	1.644970
3.927000	1.642104
3.927500	1.643696
3.928000	1.647200
3.928500	1.645608
3.929000	1.641148
3.929500	1.643696
3.930000	1.647837
3.930500	1.645289
3.931000	1.642104
3.931500	1.643696
3.932000	1.647519
3.932500	1.644970
3.933000	1.642422
3.933500	1.643059
3.934000	1.646882
3.934500	1.644970
3.935000	1.642104
3.935500	1.644333
3.936000	1.647519
3.936500	1.644970
3.937000	1.642422
3.937500	1.644333
3.938000	1.646882
3.938500	1.644652
3.939000	1.642741
3.939500	1.644333
3.940000	1.646245
3.940500	1.644333
3.941000	1.642422
3.941500	1.644652
3.942000	1.646245
3.942500	1.645289
3.943000	1.643696
3.943500	1.644970
3.944000	1.644652
3.944500	1.643378
3.945000	1.643378
3.945500	1.644970
3.946000	1.644652
3.946500	1.643378
3.947000	1.643696
3.947500	1.644652
3.948000	1.644333
3.948500	1.643696
3.949000	1.644333
3.949500	1.645289
3.950000	1.643696
3.950500	1.643378
3.951000	1.643696
3.951500	1.645289
3.952000	1.644333
3.952500	1.644015
3.953000	1.644652
3.953500	1.644652
3.954000	1.644652
3.954500	1.644333
3.955000	1.644333
3.955500	1.644015
3.956000	1.643378
3.956500	1.643696
3.957000	1.644333
3.957500	1.644015
3.958000	1.643378
3.958500	1.644015
3.959000	1.644652
3.959500	1.644015
3.960000	1.642741
3.960500	1.644970
3.961000	1.645289
3.961500	1.643059
3.962000	1.643059
3.962500	1.646245
3.963000	1.645608
3.963500	1.643378
3.964000	1.642741
3.964500	1.645926
3.965000	1.644970
3.965500	1.642422
3.966000	1.643696
3.966500	1.646245
3.967000	1.644652
3.967500	1.641785
3.968000	1.642741
3.968500	1.646245
3.969000	1.644970
3.969500	1.641467
3.970000	1.643059
3.970500	1.646563
3.971000	1.645289
3.971500	1.641467
3.972000	1.643378
3.972500	1.647519
3.973000	1.644652
3.973500	1.641148
3.974000	1.643378
3.974500	1.646882
3.975000	1.645289
3.975500	1.641785
3.976000	1.644652
3.976500	1.646882
3.977000	1.644333
3.977500	1.642422
3.978000	1.645289
3.978500	1.646245
3.979000	1.644652
3.979500	1.642422
3.980000	1.644333
3.980500	1.645608
3.981000	1.644333
3.981500	1.643059
3.982000	1.644652
3.982500	1.644970
3.983000	1.644333
3.983500	1.643696
3.984000	1.644652
3.984500	1.645289
3.985000	1.644015
3.985500	1.643696
3.986000	1.644652
3.986500	1.644652
3.987000	1.645289
3.987500	1.644652
3.988000	1.644970
3.988500	1.644970
3.989000	1.643696
3.989500	1.644652
3.990000	1.645289
3.990500	1.644333
3.991000	1.644015
3.991500	1.644015
3.992000	1.645926
3.992500	1.644652
3.993000	1.644015
3.993500	1.644015
3.994000	1.645289
3.994500	1.644333
3.995000	1.644333
3.995500	1.644333
3.996000	1.644652
3.996500	1.643378
3.997000	1.644015
3.997500	1.644652
3.998000	1.644015
3.998500	1.643696
3.999000	1.644333
3.999500	1.644652
4.000000	1.644333
4.000500	1.644652
4.001000	1.645289
4.001500	1.645926
4.002000	1.644015
4.002500	1.644015
4.003000	1.645289
4.003500	1.645608
4.004000	1.644015
4.004500	1.644015
4.005000	1.645608
4.005500	1.645608
4.006000	1.642422
4.006500	1.643696
4.007000	1.646882
4.007500	1.645608
4.008000	1.642422
4.008500	1.643378
4.009000	1.646563
4.009500	1.645289
4.010000	1.641467
4.010500	1.644333
4.011000	1.647200
4.011500	1.645608
4.012000	1.641467
4.012500	1.643378
4.013000	1.647519
4.013500	1.644970
4.014000	1.641148
4.014500	1.644652
4.015000	1.647837
4.015500	1.645289
4.016000	1.641467
4.016500	1.644015
4.017000	1.647200
4.017500	1.645926
4.018000	1.643696
4.018500	1.644970
4.019000	1.647519
4.019500	1.644333
4.020000	1.641785
4.020500	1.644015
4.021000	1.645926
4.021500	1.643696
4.022000	1.642741
4.022500	1.644333
4.023000	1.645289
4.023500	1.644333
4.024000	1.643059
4.024500	1.644015
4.025000	1.645608
4.025500	1.644333
4.026000	1.644015
4.026500	1.645926
4.027000	1.644970
4.027500	1.644333
4.028000	1.643378
4.028500	1.644652
4.029000	1.644970
4.029500	1.643696
4.030000	1.644333
4.030500	1.645926
4.031000	1.644652
4.031500	1.643378
4.032000	1.644015
4.032500	1.645926
4.033000	1.644652
4.033500	1.643696
4.034000	1.644333
4.034500	1.644652
4.035000	1.643696
4.035500	1.643696
4.036000	1.644333
4.036500	1.644333
4.037000	1.644015
4.037500	1.644333
4.038000	1.644970
4.038500	1.644970
4.039000	1.644015
4.039500	1.644333
4.040000	1.644970
4.040500	1.644333
4.041000	1.643696
4.041500	1.645608
4.042000	1.644970
4.042500	1.644015
4.043000	1.644333
4.043500	1.645289
4.044000	1.644652
4.044500	1.643378
4.045000	1.643378
4.045500	1.645289
4.046000	1.645608
4.046500	1.643059
4.047000	1.643696
4.047500	1.646882
4.048000	1.645608
4.048500	1.642422
4.049000	1.644015
4.049500	1.647519
4.050000	1.645926
4.050500	1.642104
4.051000	1.643378
4.051500	1.646882
4.052000	1.644652
4.052500	1.642422
4.053000	1.644015
4.053500	1.647200
4.054000	1.645926
4.054500	1.642104
4.055000	1.644015
4.055500	1.646563
4.056000	1.646245
4.056500	1.641467
4.057000	1.644652
4.057500	1.647837
4.058000	1.645289
4.058500	1.641467
4.059000	1.644652
4.059500	1.647519
4.060000	1.644970
4.060500	1.642422
4.061000	1.644652
4.061500	1.646882
4.062000	1.645289
4.062500	1.642741
4.063000	1.645289
4.063500	1.646882
4.064000	1.645289
4.064500	1.643059
4.065000	1.644333
4.065500	1.645926
4.066000	1.645926
4.066500	1.643378
4.067000	1.644970
4.067500	1.645926
4.068000	1.644333
4.068500	1.643059
4.069000	1.646245
4.069500	1.645289
4.070000	1.644015
4.070500	1.644015
4.071000	1.645926
4.071500	1.645608
4.072000	1.644652
4.072500	1.644970
4.073000	1.646245
4.073500	1.645289
4.074000	1.644333
4.074500	1.645289
4.075000	1.645608
4.075500	1.645608
4.076000	1.644652
4.076500	1.644970
4.077000	1.645608
4.077500	1.644970
4.078000	1.644970
4.078500	1.644333
4.079000	1.645926
4.079500	1.644652
4.080000	1.644333
4.080500	1.645926
4.081000	1.644652
4.081500	1.644970
4.082000	1.644970
4.082500	1.646245
4.083000	1.644015
4.083500	1.644015
4.084000	1.646245
4.084500	1.645608
4.085000	1.644652
4.085500	1.644015
4.086000	1.645289
4.086500	1.646245
4.087000	1.644015
4.087500	1.644015
4.088000	1.645608
4.088500	1.645608
4.089000	1.644333
4.089500	1.644652
4.090000	1.645926
4.090500	1.645608
4.091000	1.643059
4.091500	1.644015
4.092000	1.646245
4.092500	1.645926
4.093000	1.643378
4.093500	1.644015
4.094000	1.647837
4.094500	1.645926
4.095000	1.642104
4.095500	1.644015
4.096000	1.647519
4.096500	1.646245
4.097000	1.641467
4.097500	1.644015
4.098000	1.648156
4.098500	1.645289
4.099000	1.642422
4.099500	1.643696
4.100000	1.646882
4.100500	1.645289
4.101000	1.642422
4.101500	1.643378
4.102000	1.647200
4.102500	1.646245
4.103000	1.641785
4.103500	1.644015
4.104000	1.646563
4.104500	1.645608
4.105000	1.641785
4.105500	1.644652
4.106000	1.647200
4.106500	1.644015
4.107000	1.642741
4.107500	1.644333
4.108000	1.646882
4.108500	1.645608
4.109000	1.643696
4.109500	1.643696
4.110000	1.646245
4.110500	1.644333
4.111000	1.643378
4.111500	1.644970
4.112000	1.646245
4.112500	1.644333
4.113000	1.643059
4.113500	1.644652
4.114000	1.645926
4.114500	1.644652
4.115000	1.644652
4.115500	1.645289
4.116000	1.645926
4.116500	1.644333
4.117000	1.643696
4.117500	1.645289
4.118000	1.645289
4.118500	1.643696
4.119000	1.644015
4.119500	1.644652
4.120000	1.644015
4.120500	1.644015
4.121000	1.644333
4.121500	1.644333
4.122000	1.644015
4.122500	1.644652
4.123000	1.644333
4.123500	1.644970
4.124000	1.644333
4.124500	1.643696
4.125000	1.644652
4.125500	1.644333
4.126000	1.644652
4.126500	1.644333
4.127000	1.644970
4.127500	1.644333
4.128000	1.643696
4.128500	1.644333
4.129000	1.645289
4.129500	1.644333
4.130000	1.644333
4.130500	1.644652
4.131000	1.644970
4.131500	1.644333
4.132000	1.644333
4.132500	1.645926
4.133000	1.644652
4.133500	1.643059
4.134000	1.644652
4.134500	1.645289
4.135000	1.644970
4.135500	1.642422
4.136000	1.642741
4.136500	1.645608
4.137000	1.645608
4.137500	1.642741
4.138000	1.643696
4.138500	1.646563
4.139000	1.645926
4.139500	1.642741
4.140000	1.643378
4.140500	1.646245
4.141000	1.645608
4.141500	1.642422
4.142000	1.643696
4.142500	1.646882
4.143000	1.645289
4.143500	1.642422
4.144000	1.643378
4.144500	1.647519
4.145000	1.645289
4.145500	1.640829
4.146000	1.644015
4.146500	1.646563
4.147000	1.644970
4.147500	1.641467
4.148000	1.643378
4.148500	1.647200
4.149000	1.644970
4.149500	1.641148
4.150000	1.643378
4.150500	1.646882
4.151000	1.644652
4.151500	1.641785
4.152000	1.644015
4.152500	1.646563
4.153000	1.644333
4.153500	1.641785
4.154000	1.644652
4.154500	1.646882
4.155000	1.645926
4.155500	1.642422
4.156000	1.644333
4.156500	1.646563
4.157000	1.644652
4.157500	1.642741
4.158000	1.644970
4.158500	1.645926
4.159000	1.644015
4.159500	1.643378
4.160000	1.644970
4.160500	1.646245
4.161000	1.645289
4.161500	1.643378
4.162000	1.644970
4.162500	1.645289
4.163000	1.645289
4.163500	1.643696
4.164000	1.645608
4.164500	1.645926
4.165000	1.644015
4.165500	1.644970
4.166000	1.645926
4.166500	1.646245
4.167000	1.644652
4.167500	1.645289
4.168000	1.646245
4.168500	1.645608
4.169000	1.644333
4.169500	1.644970
4.170000	1.645926
4.170500	1.644970
4.171000	1.644652
4.171500	1.644652
4.172000	1.645289
4.172500	1.645289
4.173000	1.644015
4.173500	1.644970
4.174000	1.644970
4.174500	1.644015
4.175000	1.645289
4.175500	1.645926
4.176000	1.645289
4.176500	1.644652
4.177000	1.644652
4.177500	1.645608
4.178000	1.645608
4.178500	1.644015
4.179000	1.644970
4.179500	1.644970
4.180000	1.644652
4.180500	1.644652
4.181000	1.645926
4.181500	1.645926
4.182000	1.643059
4.182500	1.643696
4.183000	1.646882
4.183500	1.645926
4.184000	1.643696
4.184500	1.643378
4.185000	1.646882
4.185500	1.644652
4.186000	1.642104
4.186500	1.644333
4.187000	1.646563
4.187500	1.645926
4.188000	1.641785
4.188500	1.643378
4.189000	1.647200
4.189500	1.645608
4.190000	1.642104
4.190500	1.643378
4.191000	1.647519
4.191500	1.645608
4.192000	1.641785
4.192500	1.644333
4.193000	1.647519
4.193500	1.644970
4.194000	1.641467
4.194500	1.643378
4.195000	1.646563
4.195500	1.645289
4.196000	1.642104
4.196500	1.644015
4.197000	1.647519
4.197500	1.645289
4.198000	1.641467
4.198500	1.644015
4.199000	1.646245
4.199500	1.644333
4.200000	1.642741
4.200500	1.644015
4.201000	1.646245
4.201500	1.644652
4.202000	1.641785
4.202500	1.644015
4.203000	1.644970
4.203500	1.644970
4.204000	1.642104
4.204500	1.644015
4.205000	1.645926
4.205500	1.644333
4.206000	1.643378
4.206500	1.644652
4.207000	1.644970
4.207500	1.643696
4.208000	1.643378
4.208500	1.644652
4.209000	1.644652
4.209500	1.643378
4.210000	1.642741
4.210500	1.644333
4.211000	1.644333
4.211500	1.644015
4.212000	1.643378
4.212500	1.644333
4.213000	1.643696
4.213500	1.643378
4.214000	1.645289
4.214500	1.644652
4.215000	1.644015
4.215500	1.643696
4.216000	1.644333
4.216500	1.643696
4.217000	1.643378
4.217500	1.644970
4.218000	1.644970
4.218500	1.643378
4.219000	1.643378
4.219500	1.645289
4.220000	1.644652
4.220500	1.643696
4.221000	1.644015
4.221500	1.644652
4.222000	1.644333
4.222500	1.643696
4.223000	1.643378
4.223500	1.644652
4.224000	1.644970
4.224500	1.643696
4.225000	1.643378
4.225500	1.644970
4.226000	1.644652
4.226500	1.643378
4.227000	1.643696
4.227500	1.645926
4.228000	1.645289
4.228500	1.643059
4.229000	1.643378
4.229500	1.646245
4.230000	1.645289
4.230500	1.642422
4.231000	1.643696
4.231500	1.646563
4.232000	1.645289
4.232500	1.641785
4.233000	1.643059
4.233500	1.647200
4.234000	1.645289
4.234500	1.641785
4.235000	1.642741
4.235500	1.646563
4.236000	1.644970
4.236500	1.641785
4.237000	1.643696
4.237500	1.647200
4.238000	1.645289
4.238500	1.642104
4.239000	1.644015
4.239500	1.647519
4.240000	1.645289
4.240500	1.641785
4.241000	1.644015
4.241500	1.646882
4.242000	1.645289
4.242500	1.642741
4.243000	1.644333
4.243500	1.646563
4.244000	1.644652
4.244500	1.642104
4.245000	1.644015
4.245500	1.646245
4.246000	1.644333
4.246500	1.642741
4.247000	1.644652
4.247500	1.646245
4.248000	1.644970
4.248500	1.643378
4.249000	1.645289
4.249500	1.645289
4.250000	1.644333
4.250500	1.643378
4.251000	1.644652
4.251500	1.645608
4.252000	1.644333
4.252500	1.644015
4.253000	1.645289
4.253500	1.644970
4.254000	1.644015
4.254500	1.644015
4.255000	1.645289
4.255500	1.645289
4.256000	1.643696
4.256500	1.645289
4.257000	1.644970
4.257500	1.644015
4.258000	1.644015
4.258500	1.644652
4.259000	1.644652
4.259500	1.644333
4.260000	1.644015
4.260500	1.644333
4.261000	1.644015
4.261500	1.643378
4.262000	1.645289
4.262500	1.644652
4.263000	1.643378
4.263500	1.644015
4.264000	1.644970
4.264500	1.643696
4.265000	1.643696
4.265500	1.643696
4.266000	1.645926
4.266500	1.645608
4.267000	1.643059
4.267500	1.642741
4.268000	1.646245
4.268500	1.644970
4.269000	1.641785
4.269500	1.643059
4.270000	1.646563
4.270500	1.644333
4.271000	1.641467
4.271500	1.643378
4.272000	1.647519
4.272500	1.645289
4.273000	1.641148
4.273500	1.643378
4.274000	1.646882
4.274500	1.644652
4.275000	1.641785
4.275500	1.643059
4.276000	1.646882
4.276500	1.644333
4.277000	1.641785
4.277500	1.643696
4.278000	1.646882
4.278500	1.644970
4.279000	1.642104
4.279500	1.644015
4.280000	1.645926
4.280500	1.644333
4.281000	1.642741
4.281500	1.644015
4.282000	1.645926
4.282500	1.643696
4.283000	1.642104
4.283500	1.644333
4.284000	1.645608
4.284500	1.643378
4.285000	1.643378
4.285500	1.644970
4.286000	1.645926
4.286500	1.643696
4.287000	1.642741
4.287500	1.644333
4.288000	1.645289
4.288500	1.643696
4.289000	1.643696
4.289500	1.644333
4.290000	1.644015
4.290500	1.643378
4.291000	1.644015
4.291500	1.644970
4.292000	1.644970
4.292500	1.643378
4.293000	1.644333
4.293500	1.644652
4.294000	1.643696
4.294500	1.643696
4.295000	1.644970
4.295500	1.645608
4.296000	1.644015
4.296500	1.644652
4.297000	1.645289
4.297500	1.644333
4.298000	1.644015
4.298500	1.643696
4.299000	1.644652
4.299500	1.644015
4.300000	1.643378
4.300500	1.644652
4.301000	1.644333
4.301500	1.643378
4.302000	1.642741
4.302500	1.645608
4.303000	1.644015
4.303500	1.643059
4.304000	1.643378
4.304500	1.644970
4.305000	1.645289
4.305500	1.643059
4.306000	1.644015
4.306500	1.645608
4.307000	1.645608
4.307500	1.642741
4.308000	1.644015
4.308500	1.646245
4.309000	1.644970
4.309500	1.641785
4.310000	1.643378
4.310500	1.645926
4.311000	1.645608
4.311500	1.642104
4.312000	1.643378
4.312500	1.645926
4.313000	1.645289
4.313500	1.641148
4.314000	1.643696
4.314500	1.647519
4.315000	1.644333
4.315500	1.641785
4.316000	1.644333
4.316500	1.646882
4.317000	1.644652
4.317500	1.641785
4.318000	1.644015
4.318500	1.646245
4.319000	1.644333
4.319500	1.642422
4.320000	1.644333
4.320500	1.646563
4.321000	1.644015
4.321500	1.642104
4.322000	1.644652
4.322500	1.646563
4.323000	1.644015
4.323500	1.642741
4.324000	1.644015
4.324500	1.646882
4.325000	1.644015
4.325500	1.643378
4.326000	1.644652
4.326500	1.645289
4.327000	1.644015
4.327500	1.644015
4.328000	1.644970
4.328500	1.644970
4.329000	1.643378
4.329500	1.643696
4.330000	1.644333
4.330500	1.644652
4.331000	1.643378
4.331500	1.643696
4.332000	1.645926
4.332500	1.644333
4.333000	1.643696
4.333500	1.644652
4.334000	1.644652
4.334500	1.644652
4.335000	1.644333
4.335500	1.644652
4.336000	1.644652
4.336500	1.644333
4.337000	1.644015
4.337500	1.644333
4.338000	1.645289
4.338500	1.644333
4.339000	1.644970
4.339500	1.644333
4.340000	1.644333
4.340500	1.643696
4.341000	1.644333
4.341500	1.645289
4.342000	1.644015
4.342500	1.643059
4.343000	1.645289
4.343500	1.645289
4.344000	1.643378
4.344500	1.643696
4.345000	1.645289
4.345500	1.645289
4.346000	1.642741
4.346500	1.643696
4.347000	1.645926
4.347500	1.644652
4.348000	1.642104
4.348500	1.642741
4.349000	1.647519
4.349500	1.645289
4.350000	1.641785
4.350500	1.643059
4.351000	1.647837
4.351500	1.644652
4.352000	1.641785
4.352500	1.644015
4.353000	1.646882
4.353500	1.644970
4.354000	1.641785
4.354500	1.643378
4.355000	1.646882
4.355500	1.645289
4.356000	1.641785
4.356500	1.643378
4.357000	1.646563
4.357500	1.644970
4.358000	1.641148
4.358500	1.644015
4.359000	1.646882
4.359500	1.644970
4.360000	1.643059
4.360500	1.644015
4.361000	1.646882
4.361500	1.644015
4.362000	1.643378
4.362500	1.644333
4.363000	1.646245
4.363500	1.644015
4.364000	1.642741
4.364500	1.644970
4.365000	1.645926
4.365500	1.644970
4.366000	1.642741
4.366500	1.644652
4.367000	1.645289
4.367500	1.643378
4.368000	1.644015
4.368500	1.645289
4.369000	1.644970
4.369500	1.643696
4.370000	1.644015
4.370500	1.645926
4.371000	1.644015
4.371500	1.644015
4.372000	1.644333
4.372500	1.644333
4.373000	1.644652
4.373500	1.643696
4.374000	1.643696
4.374500	1.644652
4.375000	1.644333
4.375500	1.644333
4.376000	1.644333
4.376500	1.644970
4.377000	1.644333
4.377500	1.643696
4.378000	1.644333
4.378500	1.644333
4.379000	1.643696
4.379500	1.643378
4.380000	1.644970
4.380500	1.644333
4.381000	1.643059
4.381500	1.644333
4.382000	1.644652
4.382500	1.643378
4.383000	1.643378
4.383500	1.645289
4.384000	1.645289
4.384500	1.644015
4.385000	1.643059
4.385500	1.646245
4.386000	1.644970
4.386500	1.642422
4.387000	1.644333
4.387500	1.645608
4.388000	1.645289
4.388500	1.642741
4.389000	1.643378
4.389500	1.646245
4.390000	1.644970
4.390500	1.642422
4.391000	1.644333
4.391500	1.646563
4.392000	1.645289
4.392500	1.642104
4.393000	1.643696
4.393500	1.646563
4.394000	1.645926
4.394500	1.642741
4.395000	1.643696
4.395500	1.647519
4.396000	1.645289
4.396500	1.641467
4.397000	1.642741
4.397500	1.647519
4.398000	1.644652
4.398500	1.641148
4.399000	1.642741
4.399500	1.646882
4.400000	1.645608
4.400500	1.642104
4.401000	1.643696
4.401500	1.646882
4.402000	1.644652
4.402500	1.641467
4.403000	1.643378
4.403500	1.647200
4.404000	1.644652
4.404500	1.641785
4.405000	1.644015
4.405500	1.645926
4.406000	1.644652
4.406500	1.643059
4.407000	1.643696
4.407500	1.645926
4.408000	1.644333
4.408500	1.642104
4.409000	1.644652
4.409500	1.645608
4.410000	1.644015
4.410500	1.643059
4.411000	1.642422
4.411500	1.645608
4.412000	1.643696
4.412500	1.643059
4.413000	1.644333
4.413500	1.644652
4.414000	1.644333
4.414500	1.643696
4.415000	1.644333
4.415500	1.644652
4.416000	1.643378
4.416500	1.642422
4.417000	1.644652
4.417500	1.643696
4.418000	1.642104
4.418500	1.643059
4.419000	1.644333
4.419500	1.644333
4.420000	1.642422
4.420500	1.643696
4.421000	1.644333
4.421500	1.643378
4.422000	1.643378
4.422500	1.644652
4.423000	1.644015
4.423500	1.643378
4.424000	1.643059
4.424500	1.644015
4.425000	1.644015
4.425500	1.644015
4.426000	1.643059
4.426500	1.643059
4.427000	1.643059
4.427500	1.643059
4.428000	1.644333
4.428500	1.644015
4.429000	1.643696
4.429500	1.643059
4.430000	1.644333
4.430500	1.644015
4.431000	1.643378
4.431500	1.642422
4.432000	1.645289
4.432500	1.645289
4.433000	1.641785
4.433500	1.642741
4.434000	1.645289
4.434500	1.644333
4.435000	1.641467
4.435500	1.642741
4.436000	1.645926
4.436500	1.644970
4.437000	1.642104
4.437500	1.642741
4.438000	1.645926
4.438500	1.645289
4.439000	1.641148
4.439500	1.643696
4.440000	1.647200
4.440500	1.645289
4.441000	1.641148
4.441500	1.643059
4.442000	1.646563
4.442500	1.645289
4.443000	1.641148
4.443500	1.643059
4.444000	1.648156
4.444500	1.644970
4.445000	1.642422
4.445500	1.643059
4.446000	1.646563
4.446500	1.644652
4.447000	1.641467
4.447500	1.643696
4.448000	1.645926
4.448500	1.645289
4.449000	1.642741
4.449500	1.644333
4.450000	1.646882
4.450500	1.644333
4.451000	1.642422
4.451500	1.644015
4.452000	1.646563
4.452500	1.644015
4.453000	1.642422
4.453500	1.645289
4.454000	1.645926
4.454500	1.644015
4.455000	1.643696
4.455500	1.644333
4.456000	1.645289
4.456500	1.644015
4.457000	1.643059
4.457500	1.644333
4.458000	1.644970
4.458500	1.643696
4.459000	1.643378
4.459500	1.645289
4.460000	1.645926
4.460500	1.644652
4.461000	1.643378
4.461500	1.644015
4.462000	1.644333
4.462500	1.644333
4.463000	1.643696
4.463500	1.645926
4.464000	1.644970
4.464500	1.644015
4.465000	1.644333
4.465500	1.645289
4.466000	1.644970
4.466500	1.643378
4.467000	1.644652
4.467500	1.644970
4.468000	1.644333
4.468500	1.644333
4.469000	1.644333
4.469500	1.644652
4.470000	1.644652
4.470500	1.645289
4.471000	1.645608
4.471500	1.644015
4.472000	1.644333
4.472500	1.645608
4.473000	1.645289
4.473500	1.644015
4.474000	1.644652
4.474500	1.646563
4.475000	1.645608
4.475500	1.643696
4.476000	1.644015
4.476500	1.645926
4.477000	1.645289
4.477500	1.644015
4.478000	1.643696
4.478500	1.646882
4.479000	1.645926
4.479500	1.644015
4.480000	1.643059
4.480500	1.646245
4.481000	1.646563
4.481500	1.643059
4.482000	1.643378
4.482500	1.647519
4.483000	1.645926
4.483500	1.642422
4.484000	1.644015
4.484500	1.648156
4.485000	1.646245
4.485500	1.641785
4.486000	1.644333
4.486500	1.647519
4.487000	1.645289
4.487500	1.641785
4.488000	1.643378
4.488500	1.647200
4.489000	1.645608
4.489500	1.642422
4.490000	1.643378
4.490500	1.647200
4.491000	1.645289
4.491500	1.643059
4.492000	1.643696
4.492500	1.647837
4.493000	1.644970
4.493500	1.642741
4.494000	1.644333
4.494500	1.647519
4.495000	1.645289
4.495500	1.642422
4.496000	1.644970
4.496500	1.646882
4.497000	1.644652
4.497500	1.642104
4.498000	1.644970
4.498500	1.646882
4.499000	1.644652
4.499500	1.642104
4.500000	1.644970
4.500500	1.644652
4.501000	1.644333
4.501500	1.643378
4.502000	1.644333
4.502500	1.646245
4.503000	1.643696
4.503500	1.643378
4.504000	1.645289
4.504500	1.644970
4.505000	1.643696
4.505500	1.643696
4.506000	1.644652
4.506500	1.644970
4.507000	1.643696
4.507500	1.643378
4.508000	1.644333
4.508500	1.644652
4.509000	1.643696
4.509500	1.644015
4.510000	1.644652
4.510500	1.644652
4.511000	1.641785
4.511500	1.644970
4.512000	1.644015
4.512500	1.644652
4.513000	1.644015
4.513500	1.644333
4.514000	1.644970
4.514500	1.644652
4.515000	1.644015
4.515500	1.644333
4.516000	1.644652
4.516500	1.643378
4.517000	1.644652
4.517500	1.644015
4.518000	1.644652
4.518500	1.644015
4.519000	1.644333
4.519500	1.645289
4.520000	1.644652
4.520500	1.643059
4.521000	1.644333
4.521500	1.644652
4.522000	1.643378
4.522500	1.643378
4.523000	1.644970
4.523500	1.644652
4.524000	1.643378
4.524500	1.644015
4.525000	1.645608
4.525500	1.645289
4.526000	1.642422
4.526500	1.643696
4.527000	1.646245
4.527500	1.644652
4.528000	1.642422
4.528500	1.643059
4.529000	1.646882
4.529500	1.645608
4.530000	1.641785
4.530500	1.643059
4.531000	1.647200
4.531500	1.644970
4.532000	1.641785
4.532500	1.643059
4.533000	1.646563
4.533500	1.645926
4.534000	1.641467
4.534500	1.643059
4.535000	1.647519
4.535500	1.644970
4.536000	1.641785
4.536500	1.643696
4.537000	1.647519
4.537500	1.644970
4.538000	1.642422
4.538500	1.643696
4.539000	1.646882
4.539500	1.644333
4.540000	1.641467
4.540500	1.644015
4.541000	1.645926
4.541500	1.644970
4.542000	1.642104
4.542500	1.644333
4.543000	1.645926
4.543500	1.645608
4.544000	1.642741
4.544500	1.645289
4.545000	1.645926
4.545500	1.644970
4.546000	1.642741
4.546500	1.644333
4.547000	1.645608
4.547500	1.644970
4.548000	1.644333
4.548500	1.644970
4.549000	1.645926
4.549500	1.644652
4.550000	1.643378
4.550500	1.644970
4.551000	1.644970
4.551500	1.644333
4.552000	1.643696
4.552500	1.645289
4.553000	1.644333
4.553500	1.644652
4.554000	1.644333
4.554500	1.644970
4.555000	1.644652
4.555500	1.643696
4.556000	1.645289
4.556500	1.644652
4.557000	1.644333
4.557500	1.643696
4.558000	1.645608
4.558500	1.644970
4.559000	1.643696
4.559500	1.643378
4.560000	1.644333
4.560500	1.644015
4.561000	1.644015
4.561500	1.644970
4.562000	1.644652
4.562500	1.644333
4.563000	1.643378
4.563500	1.645608
4.564000	1.644970
4.564500	1.643378
4.565000	1.644015
4.565500	1.644970
4.566000	1.644970
4.566500	1.643696
4.567000	1.643696
4.567500	1.645608
4.568000	1.645289
4.568500	1.642741
4.569000	1.643378
4.569500	1.645926
4.570000	1.645926
4.570500	1.643059
4.571000	1.644015
4.571500	1.646245
4.572000	1.645608
4.572500	1.642741
4.573000	1.644333
4.573500	1.647200
4.574000	1.645608
4.574500	1.642104
4.575000	1.643696
4.575500	1.646882
4.576000	1.645608
4.576500	1.641785
4.577000	1.643059
4.577500	1.646245
4.578000	1.644970
4.578500	1.641467
4.579000	1.643378
4.579500	1.647519
4.580000	1.644970
4.580500	1.641785
4.581000	1.643696
4.581500	1.646245
4.582000	1.644333
4.582500	1.642741
4.583000	1.643059
4.583500	1.646882
4.584000	1.644015
4.584500	1.642422
4.585000	1.644015
4.585500	1.646245
4.586000	1.644970
4.586500	1.643378
4.587000	1.644652
4.587500	1.645608
4.588000	1.643696
4.588500	1.642104
4.589000	1.644652
4.589500	1.644970
4.590000	1.643696
4.590500	1.643378
4.591000	1.644652
4.591500	1.644333
4.592000	1.643378
4.592500	1.643696
4.593000	1.645289
4.593500	1.644652
4.594000	1.643696
4.594500	1.644333
4.595000	1.644015
4.595500	1.644015
4.596000	1.644015
4.596500	1.644652
4.597000	1.644652
4.597500	1.644015
4.598000	1.644015
4.598500	1.644652
4.599000	1.644333
4.599500	1.644015
4.600000	1.643696
4.600500	1.644652
4.601000	1.644015
4.601500	1.644015
4.602000	1.644015
4.602500	1.644652
4.603000	1.644333
4.603500	1.643059
4.604000	1.644333
4.604500	1.644970
4.605000	1.644015
4.605500	1.643378
4.606000	1.644333
4.606500	1.644970
4.607000	1.642104
4.607500	1.643378
4.608000	1.645608
4.608500	1.645289
4.609000	1.642104
4.609500	1.642741
4.610000	1.645289
4.610500	1.646245
4.611000	1.643059
4.611500	1.643378
4.612000	1.646245
4.612500	1.644970
4.613000	1.641785
4.613500	1.643059
4.614000	1.647200
4.614500	1.644652
4.615000	1.641148
4.615500	1.643378
4.616000	1.646882
4.616500	1.644652
4.617000	1.641148
4.617500	1.643696
4.618000	1.646882
4.618500	1.644333
4.619000	1.641785
4.619500	1.643059
4.620000	1.647519
4.620500	1.644015
4.621000	1.641148
4.621500	1.643696
4.622000	1.646882
4.622500	1.644333
4.623000	1.641785
4.623500	1.643696
4.624000	1.646245
4.624500	1.644333
4.625000	1.642741
4.625500	1.643696
4.626000	1.645608
4.626500	1.644333
4.627000	1.642422
4.627500	1.644015
4.628000	1.645926
4.628500	1.643378
4.629000	1.642741
4.629500	1.644015
4.630000	1.645289
4.630500	1.643378
4.631000	1.642741
4.631500	1.644333
4.632000	1.645289
4.632500	1.643696
4.633000	1.642741
4.633500	1.644652
4.634000	1.645608
4.634500	1.643696
4.635000	1.644015
4.635500	1.644652
4.636000	1.644970
4.636500	1.643696
4.637000	1.644652
4.637500	1.645289
4.638000	1.644970
4.638500	1.644015
4.639000	1.644970
4.639500	1.645289
4.640000	1.644652
4.640500	1.644015
4.641000	1.643696
4.641500	1.645289
4.642000	1.645289
4.642500	1.644015
4.643000	1.644333
4.643500	1.644333
4.644000	1.644333
4.644500	1.644333
4.645000	1.644970
4.645500	1.644970
4.646000	1.644333
4.646500	1.644652
4.647000	1.644970
4.647500	1.644333
4.648000	1.643696
4.648500	1.644970
4.649000	1.644333
4.649500	1.643059
4.650000	1.644015
4.650500	1.645926
4.651000	1.645608
4.651500	1.644015
4.652000	1.643378
4.652500	1.646563
4.653000	1.644970
4.653500	1.643059
4.654000	1.643696
4.654500	1.646245
4.655000	1.645289
4.655500	1.642741
4.656000	1.643378
4.656500	1.646563
4.657000	1.644970
4.657500	1.644015
4.658000	1.643696
4.658500	1.645926
4.659000	1.645289
4.659500	1.642104
4.660000	1.643696
4.660500	1.646245
4.661000	1.644333
4.661500	1.642741
4.662000	1.643696
4.662500	1.647200
4.663000	1.645608
4.663500	1.642104
4.664000	1.643059
4.664500	1.646882
4.665000	1.644970
4.665500	1.640829
4.666000	1.643059
4.666500	1.646563
4.667000	1.644015
4.667500	1.642104
4.668000	1.642741
4.668500	1.646882
4.669000	1.644652
4.669500	1.642104
4.670000	1.643378
4.670500	1.646245
4.671000	1.644015
4.671500	1.642422
4.672000	1.644333
4.672500	1.646245
4.673000	1.644333
4.673500	1.642104
4.674000	1.644015
4.674500	1.646563
4.675000	1.644652
4.675500	1.642422
4.676000	1.644015
4.676500	1.645926
4.677000	1.643059
4.677500	1.641785
4.678000	1.642741
4.678500	1.644652
4.679000	1.643059
4.679500	1.641785
4.680000	1.644015
4.680500	1.644970
4.681000	1.643378
4.681500	1.642741
4.682000	1.643696
4.682500	1.644333
4.683000	1.643059
4.683500	1.643059
4.684000	1.643696
4.684500	1.644652
4.685000	1.643378
4.685500	1.642104
4.686000	1.644015
4.686500	1.644652
4.687000	1.642741
4.687500	1.643378
4.688000	1.644015
4.688500	1.644015
4.689000	1.643059
4.689500	1.644333
4.690000	1.644333
4.690500	1.643696
4.691000	1.643059
4.691500	1.644015
4.692000	1.644333
4.692500	1.642741
4.693000	1.643696
4.693500	1.644015
4.694000	1.644015
4.694500	1.643378
4.695000	1.644015
4.695500	1.644333
4.696000	1.644970
4.696500	1.643378
4.697000	1.643696
4.697500	1.643696
4.698000	1.644333
4.698500	1.643378
4.699000	1.643696
4.699500	1.644652
4.700000	1.644333
4.700500	1.643378
4.701000	1.644652
4.701500	1.644333
4.702000	1.644015
4.702500	1.642741
4.703000	1.644015
4.703500	1.644652
4.704000	1.643378
4.704500	1.643378
4.705000	1.644333
4.705500	1.644970
4.706000	1.644015
4.706500	1.643378
4.707000	1.644970
4.707500	1.644652
4.708000	1.643378
4.708500	1.644015
4.709000	1.646245
4.709500	1.645289
4.710000	1.641785
4.710500	1.642741
4.711000	1.646245
4.711500	1.645926
4.712000	1.642741
4.712500	1.643378
4.713000	1.646245
4.713500	1.645289
4.714000	1.642422
4.714500	1.643378
4.715000	1.647200
4.715500	1.645926
4.716000	1.642741
4.716500	1.644333
4.717000	1.647837
4.717500	1.645608
4.718000	1.641467
4.718500	1.643378
4.719000	1.646563
4.719500	1.645926
4.720000	1.642422
4.720500	1.643059
4.721000	1.648474
4.721500	1.645289
4.722000	1.642104
4.722500	1.644652
4.723000	1.647837
4.723500	1.644333
4.724000	1.642422
4.724500	1.644333
4.725000	1.647200
4.725500	1.644652
4.726000	1.642104
4.726500	1.644333
4.727000	1.646882
4.727500	1.644652
4.728000	1.642104
4.728500	1.644015
4.729000	1.646245
4.729500	1.644970
4.730000	1.643378
4.730500	1.644970
4.731000	1.647200
4.731500	1.644652
4.732000	1.643696
4.732500	1.644970
4.733000	1.645289
4.733500	1.643696
4.734000	1.644333
4.734500	1.644970
4.735000	1.645289
4.735500	1.643696
4.736000	1.643696
4.736500	1.645608
4.737000	1.644652
4.737500	1.643696
4.738000	1.643696
4.738500	1.645926
4.739000	1.645289
4.739500	1.644652
4.740000	1.644333
4.740500	1.644970
4.741000	1.644652
4.741500	1.643378
4.742000	1.644652
4.742500	1.644333
4.743000	1.644015
4.743500	1.644333
4.744000	1.644970
4.744500	1.645608
4.745000	1.643378
4.745500	1.644970
4.746000	1.645926
4.746500	1.644015
4.747000	1.643378
4.747500	1.644333
4.748000	1.644333
4.748500	1.643378
4.749000	1.643378
4.749500	1.644333
4.750000	1.645289
4.750500	1.643378
4.751000	1.643378
4.751500	1.645289
4.752000	1.645289
4.752500	1.643378
4.753000	1.643378
4.753500	1.645926
4.754000	1.645608
4.754500	1.642422
4.755000	1.643378
4.755500	1.646245
4.756000	1.644970
4.756500	1.642422
4.757000	1.643696
4.757500	1.645608
4.758000	1.645289
4.758500	1.642104
4.759000	1.642104
4.759500	1.646563
4.760000	1.645289
4.760500	1.641467
4.761000	1.642741
4.761500	1.646882
4.762000	1.644970
4.762500	1.641785
4.763000	1.643378
4.763500	1.646882
4.764000	1.644652
4.764500	1.641785
4.765000	1.643696
4.765500	1.646882
4.766000	1.644652
4.766500	1.640511
4.767000	1.643696
4.767500	1.646882
4.768000	1.644970
4.768500	1.641148
4.769000	1.644015
4.769500	1.646882
4.770000	1.644970
4.770500	1.641785
4.771000	1.643696
4.771500	1.645926
4.772000	1.644015
4.772500	1.641467
4.773000	1.644015
4.773500	1.645926
4.774000	1.644652
4.774500	1.642422
4.775000	1.644333
4.775500	1.645289
4.776000	1.644015
4.776500	1.642422
4.777000	1.644333
4.777500	1.644970
4.778000	1.643696
4.778500	1.642741
4.779000	1.644333
4.779500	1.644652
4.780000	1.644015
4.780500	1.643378
4.781000	1.645289
4.781500	1.644652
4.782000	1.644333
4.782500	1.644333
4.783000	1.644970
4.783500	1.644333
4.784000	1.644015
4.784500	1.644333
4.785000	1.644970
4.785500	1.644015
4.786000	1.644015
4.786500	1.644015
4.787000	1.644970
4.787500	1.644333
4.788000	1.643696
4.788500	1.644970
4.789000	1.644333
4.789500	1.643696
4.790000	1.645608
4.790500	1.644652
4.791000	1.643696
4.791500	1.643378
4.792000	1.644970
4.792500	1.645289
4.793000	1.643378
4.793500	1.644652
4.794000	1.645926
4.794500	1.644970
4.795000	1.643378
4.795500	1.644015
4.796000	1.646245
4.796500	1.645926
4.797000	1.644015
4.797500	1.642741
4.798000	1.645926
4.798500	1.645289
4.799000	1.643378
4.799500	1.644015
4.800000	1.646245
4.800500	1.645926
4.801000	1.643059
4.801500	1.644333
4.802000	1.647837
4.802500	1.644970
4.803000	1.642741
4.803500	1.644652
4.804000	1.646563
4.804500	1.645926
4.805000	1.642422
4.805500	1.644015
4.806000	1.647519
4.806500	1.644652
4.807000	1.642104
4.807500	1.644015
4.808000	1.648474
4.808500	1.646245
4.809000	1.641785
4.809500	1.644652
4.810000	1.647837
4.810500	1.645289
4.811000	1.642422
4.811500	1.644333
4.812000	1.647837
4.812500	1.645289
4.813000	1.642422
4.813500	1.644015
4.814000	1.647519
4.814500	1.644970
4.815000	1.642741
4.815500	1.644970
4.816000	1.646245
4.816500	1.644652
4.817000	1.643378
4.817500	1.645289
4.818000	1.645926
4.818500	1.644970
4.819000	1.643696
4.819500	1.644333
4.820000	1.645289
4.820500	1.644015
4.821000	1.643059
4.821500	1.644652
4.822000	1.644970
4.822500	1.643378
4.823000	1.643378
4.823500	1.644970
4.824000	1.644970
4.824500	1.644015
4.825000	1.644333
4.825500	1.644970
4.826000	1.644333
4.826500	1.643059
4.827000	1.643696
4.827500	1.644970
4.828000	1.644015
4.828500	1.643059
4.829000	1.644333
4.829500	1.644970
4.830000	1.644015
4.830500	1.643059
4.831000	1.643696
4.831500	1.644652
4.832000	1.643696
4.832500	1.644333
4.833000	1.644333
4.833500	1.643696
4.834000	1.644333
4.834500	1.643696
4.835000	1.644652
4.835500	1.643378
4.836000	1.643696
4.836500	1.644015
4.837000	1.644015
4.837500	1.643378
4.838000	1.643696
4.838500	1.644333
4.839000	1.644333
4.839500	1.642741
4.840000	1.642422
4.840500	1.644333
4.841000	1.644970
4.841500	1.643378
4.842000	1.643378
4.842500	1.644970
4.843000	1.644970
4.843500	1.642422
4.844000	1.642422
4.844500	1.645289
4.845000	1.644970
4.845500	1.642741
4.846000	1.643696
4.846500	1.645926
4.847000	1.644970
4.847500	1.642104
4.848000	1.642422
4.848500	1.646563
4.849000	1.644970
4.849500	1.641785
4.850000	1.643059
4.850500	1.646882
4.851000	1.645289
4.851500	1.641467
4.852000	1.643059
4.852500	1.647200
4.853000	1.645289
4.853500	1.641785
4.854000	1.643378
4.854500	1.646882
4.855000	1.645926
4.855500	1.641467
4.856000	1.644333
4.856500	1.646882
4.857000	1.645289
4.857500	1.641785
4.858000	1.644970
4.858500	1.646563
4.859000	1.644652
4.859500	1.641148
4.860000	1.643059
4.860500	1.647519
4.861000	1.645289
4.861500	1.641785
4.862000	1.644333
4.862500	1.647200
4.863000	1.644970
4.863500	1.642104
4.864000	1.644015
4.864500	1.646882
4.865000	1.645608
4.865500	1.642741
4.866000	1.644652
4.866500	1.645926
4.867000	1.644652
4.867500	1.642422
4.868000	1.644970
4.868500	1.646563
4.869000	1.644652
4.869500	1.643059
4.870000	1.644652
4.870500	1.645608
4.871000	1.644652
4.871500	1.643059
4.872000	1.644015
4.872500	1.646245
4.873000	1.644652
4.873500	1.643378
4.874000	1.644652
4.874500	1.645289
4.875000	1.644333
4.875500	1.644015
4.876000	1.644970
4.876500	1.645289
4.877000	1.643696
4.877500	1.644015
4.878000	1.645289
4.878500	1.645289
4.879000	1.644333
4.879500	1.644652
4.880000	1.645608
4.880500	1.644652
4.881000	1.644333
4.881500	1.644015
4.882000	1.645608
4.882500	1.645289
4.883000	1.644333
4.883500	1.644333
4.884000	1.645608
4.884500	1.645608
4.885000	1.644015
4.885500	1.644970
4.886000	1.645608
4.886500	1.645289
4.887000	1.644970
4.887500	1.644970
4.888000	1.645289
4.888500	1.644333
4.889000	1.644333
4.889500	1.645289
4.890000	1.644652
4.890500	1.644333
4.891000	1.644015
4.891500	1.645289
4.892000	1.644652
4.892500	1.644333
4.893000	1.645289
4.893500	1.645926
4.894000	1.644652
4.894500	1.644652
4.895000	1.645289
4.895500	1.645608
4.896000	1.644333
4.896500	1.644652
4.897000	1.645926
4.897500	1.645289
4.898000	1.644015
4.898500	1.644652
4.899000	1.645289
4.899500	1.645289
4.900000	1.643378
4.900500	1.643696
4.901000	1.646245
4.901500	1.645608
4.902000	1.642741
4.902500	1.643059
4.903000	1.647200
4.903500	1.645608
4.904000	1.642741
4.904500	1.643059
4.905000	1.646882
4.905500	1.645289
4.906000	1.641785
4.906500	1.643696
4.907000	1.647200
4.907500	1.645926
4.908000	1.641148
4.908500	1.642741
4.909000	1.646563
4.909500	1.645289
4.910000	1.641467
4.910500	1.643378
4.911000	1.646563
4.911500	1.644970
4.912000	1.641467
4.912500	1.643378
4.913000	1.647519
4.913500	1.644652
4.914000	1.641785
4.914500	1.643059
4.915000	1.646563
4.915500	1.644333
4.916000	1.640829
4.916500	1.643696
4.917000	1.646245
4.917500	1.644970
4.918000	1.641467
4.918500	1.643378
4.919000	1.645926
4.919500	1.644015
4.920000	1.640829
4.920500	1.644015
4.921000	1.645926
4.921500	1.644333
4.922000	1.642104
4.922500	1.644015
4.923000	1.646245
4.923500	1.644015
4.924000	1.642104
4.924500	1.644015
4.925000	1.645608
4.925500	1.644970
4.926000	1.642422
4.926500	1.644333
4.927000	1.644970
4.927500	1.644015
4.928000	1.642741
4.928500	1.644970
4.929000	1.645608
4.929500	1.643378
4.930000	1.642741
4.930500	1.644652
4.931000	1.645289
4.931500	1.643059
4.932000	1.643696
4.932500	1.644652
4.933000	1.645289
4.933500	1.644015
4.934000	1.644333
4.934500	1.645608
4.935000	1.644333
4.935500	1.644015
4.936000	1.643696
4.936500	1.644970
4.937000	1.644652
4.937500	1.643059
4.938000	1.644652
4.938500	1.645289
4.939000	1.644015
4.939500	1.643696
4.940000	1.644015
4.940500	1.644652
4.941000	1.644015
4.941500	1.644015
4.942000	1.644652
4.942500	1.644333
4.943000	1.644015
4.943500	1.644333
4.944000	1.645608
4.944500	1.644015
4.945000	1.643696
4.945500	1.644652
4.946000	1.644970
4.946500	1.644333
4.947000	1.643696
4.947500	1.644652
4.948000	1.644652
4.948500	1.643696
4.949000	1.643696
4.949500	1.645289
4.950000	1.644970
4.950500	1.643378
4.951000	1.643378
4.951500	1.647200
4.952000	1.646245
4.952500	1.643059
4.953000	1.643696
4.953500	1.646245
4.954000	1.645289
4.954500	1.641785
4.955000	1.643059
4.955500	1.645926
4.956000	1.645608
4.956500	1.641785
4.957000	1.644015
4.957500	1.646882
4.958000	1.645608
4.958500	1.641785
4.959000	1.644015
4.959500	1.647519
4.960000	1.645926
4.960500	1.641785
4.961000	1.643378
4.961500	1.647200
4.962000	1.645289
4.962500	1.642422
4.963000	1.644333
4.963500	1.647519
4.964000	1.645608
4.964500	1.642741
4.965000	1.644015
4.965500	1.646882
4.966000	1.645608
4.966500	1.642104
4.967000	1.645289
4.967500	1.647200
4.968000	1.645608
4.968500	1.642741
4.969000	1.644333
4.969500	1.645926
4.970000	1.644652
4.970500	1.643059
4.971000	1.645608
4.971500	1.645926
4.972000	1.644333
4.972500	1.644015
4.973000	1.644970
4.973500	1.644970
4.974000	1.643378
4.974500	1.644015
4.975000	1.644970
4.975500	1.644970
4.976000	1.643378
4.976500	1.644333
4.977000	1.645289
4.977500	1.644015
4.978000	1.643378
4.978500	1.644333
4.979000	1.644970
4.979500	1.644015
4.980000	1.644652
4.980500	1.644333
4.981000	1.644652
4.981500	1.644333
4.982000	1.644015
4.982500	1.644970
4.983000	1.644015
4.983500	1.643378
4.984000	1.642422
4.984500	1.644015
4.985000	1.644015
4.985500	1.642741
4.986000	1.644652
4.986500	1.644015
4.987000	1.643378
4.987500	1.642741
4.988000	1.644333
4.988500	1.643378
4.989000	1.643059
4.989500	1.643696
4.990000	1.644970
4.990500	1.644652
4.991000	1.642741
4.991500	1.642422
4.992000	1.645926
4.992500	1.644333
4.993000	1.641467
4.993500	1.643378
4.994000	1.646245
4.994500	1.644970
4.995000	1.641467
4.995500	1.643378
4.996000	1.646563
4.996500	1.645289
4.997000	1.641785
4.997500	1.642741
4.998000	1.646245
4.998500	1.644652
4.999000	1.640829
4.999500	1.642104

